#kx 	ky 	kz 	real 	imag 	intensity
0.800000 0.800000 0.983333 -20.749414 -6.635376 474.566406
0.800000 0.800000 0.991667 15.010067 7.187061 276.955963
0.800000 0.800000 1.000000 -16.181217 19.959209 660.201843
0.800000 0.800000 1.008333 -14.420703 1.354548 209.791489
0.800000 0.800000 1.016667 -12.708139 1.662320 164.260117
0.800000 0.900000 0.983333 4.130905 -17.782469 333.280579
0.800000 0.900000 0.991667 -0.977826 20.820850 434.463959
0.800000 0.900000 1.000000 -42.617401 -8.894405 1895.353394
0.800000 0.900000 1.008333 3.430279 -28.654102 832.824341
0.800000 0.900000 1.016667 -12.667320 -2.141495 165.046997
0.800000 1.000000 0.983333 15.301531 -1.483341 236.337143
0.800000 1.000000 0.991667 -5.230385 -9.052684 109.308014
0.800000 1.000000 1.000000 22.914047 -19.065615 888.551270
0.800000 1.000000 1.008333 13.336355 9.232692 263.100952
0.800000 1.000000 1.016667 15.265580 -5.835360 267.089355
0.800000 1.100000 0.983333 15.718094 10.985182 367.732697
0.800000 1.100000 0.991667 31.976765 15.467552 1261.758667
0.800000 1.100000 1.000000 -27.236084 59.643093 4299.103027
0.800000 1.100000 1.008333 -24.092991 -26.769115 1297.057861
0.800000 1.100000 1.016667 -2.407872 38.551586 1492.022705
0.800000 1.200000 0.983333 1.249212 26.801458 719.878723
0.800000 1.200000 0.991667 -14.774703 37.484695 1623.394287
0.800000 1.200000 1.000000 -65.745811 -43.031395 6174.212891
0.800000 1.200000 1.008333 54.298599 -34.145386 4114.245117
0.800000 1.200000 1.016667 -30.250113 4.649015 936.682678
0.900000 0.800000 0.983333 -28.319023 3.232425 812.415588
0.900000 0.800000 0.991667 -33.713478 -18.913557 1494.321289
0.900000 0.800000 1.000000 3.492905 -4.712097 34.404243
0.900000 0.800000 1.008333 -45.689545 -10.726360 2202.589111
0.900000 0.800000 1.016667 17.880157 -41.833145 2069.712158
0.900000 0.900000 0.983333 135.314468 -342.848755 135855.265625
0.900000 0.900000 0.991667 -428.933258 1444.289795 2269956.750000
0.900000 0.900000 1.000000 -2174.033691 -843.709656 5438268.500000
0.900000 0.900000 1.008333 367.260742 -1430.450439 2181069.000000
0.900000 0.900000 1.016667 122.493332 -349.632385 137247.421875
0.900000 1.000000 0.983333 588.268372 134.559814 364166.031250
0.900000 1.000000 0.991667 -2346.106934 -279.633484 5582412.500000
0.900000 1.000000 1.000000 747.757568 -3533.058594 13041644.000000
0.900000 1.000000 1.008333 2243.959473 187.634705 5070561.000000
0.900000 1.000000 1.016667 615.394592 88.253952 386499.250000
0.900000 1.100000 0.983333 -1.090725 429.240784 184248.843750
0.900000 1.100000 0.991667 -97.404236 -1461.078857 2144239.000000
0.900000 1.100000 1.000000 2253.979248 84.002914 5087479.000000
0.900000 1.100000 1.008333 147.013306 1418.601807 2034044.000000
0.900000 1.100000 1.016667 -23.185015 439.391357 193602.312500
0.900000 1.200000 0.983333 -31.906048 58.628716 4455.322266
0.900000 1.200000 0.991667 -80.420761 -27.544422 7226.194336
0.900000 1.200000 1.000000 42.479935 -56.753349 5025.487305
0.900000 1.200000 1.008333 -5.056112 58.533375 3451.720215
0.900000 1.200000 1.016667 -43.177120 -52.511444 4621.715332
1.000000 0.800000 0.983333 -48.172935 -55.201256 5367.810547
1.000000 0.800000 0.991667 46.871880 -51.452179 4844.299805
1.000000 0.800000 1.000000 -10.781933 22.428276 619.277649
1.000000 0.800000 1.008333 -5.838930 -77.731087 6076.215332
1.000000 0.800000 1.016667 71.448578 0.842478 5105.609375
1.000000 0.900000 0.983333 591.940063 87.946030 358127.531250
1.000000 0.900000 0.991667 -2315.025391 -279.743835 5437599.000000
1.000000 0.900000 1.000000 730.040527 -3559.275391 13201400.000000
1.000000 0.900000 1.008333 2312.506592 173.654297 5377842.500000
1.000000 0.900000 1.016667 591.100464 130.518951 366434.937500
1.000000 1.000000 0.983333 -39.651703 967.849731 938305.375000
1.000000 1.000000 0.991667 -148.462769 -3672.206055 13507138.000000
1.000000 1.000000 1.000000 5634.095703 272.674133 31817386.000000
1.000000 1.000000 1.008333 292.108887 3521.052734 12483140.000000
1.000000 1.000000 1.016667 5.961113 990.692505 981507.187500
1.000000 1.100000 0.983333 -660.797546 107.233711 448152.468750
1.000000 1.100000 0.991667 2251.789307 -495.425659 5316001.500000
1.000000 1.100000 1.000000 396.977539 3543.351318 12712930.000000
1.000000 1.100000 1.008333 -2176.431885 551.969055 5041525.500000
1.000000 1.100000 1.016667 -684.271179 100.531891 478333.687500
1.000000 1.200000 0.983333 -85.260445 -5.675007 7301.548828
1.000000 1.200000 0.991667 20.006163 -90.914948 8665.773438
1.000000 1.200000 1.000000 29.359085 17.935184 1183.626709
1.000000 1.200000 1.008333 -30.380224 -34.791206 2133.386230
1.000000 1.200000 1.016667 44.095512 -60.276306 5577.647461
1.100000 0.800000 0.983333 50.379478 -57.335747 5825.479492
1.100000 0.800000 0.991667 18.416534 53.307117 3180.817383
1.100000 0.800000 1.000000 -28.301733 -28.207455 1596.648682
1.100000 0.800000 1.008333 56.182259 -24.314129 3747.623047
1.100000 0.800000 1.016667 43.961964 54.274902 4878.419434
1.100000 0.900000 0.983333 29.070255 408.516785 167731.046875
1.100000 0.900000 0.991667 -70.191467 -1491.030273 2228098.000000
1.100000 0.900000 1.000000 2332.546875 95.417389 5449879.500000
1.100000 0.900000 1.008333 143.750244 1488.333130 2235799.750000
1.100000 0.900000 1.016667 -37.137497 419.790100 177602.921875
1.100000 1.000000 0.983333 -642.377014 76.568932 418511.031250
1.100000 1.000000 0.991667 2291.379883 -453.158936 5455775.000000
1.100000 1.000000 1.000000 376.255127 3574.942383 12921781.000000
1.100000 1.000000 1.008333 -2197.258301 541.097473 5120730.500000
1.100000 1.000000 1.016667 -637.307312 93.636925 414928.500000
1.100000 1.100000 0.983333 -124.773865 -429.316162 199880.875000
1.100000 1.100000 0.991667 522.555786 1365.761230 2138368.250000
1.100000 1.100000 1.000000 -2192.537109 567.905762 5129736.000000
1.100000 1.100000 1.008333 -542.218506 -1323.271118 2045047.375000
1.100000 1.100000 1.016667 -133.261993 -420.136475 194273.421875
1.100000 1.200000 0.983333 2.948842 -52.240788 2737.795410
1.100000 1.200000 0.991667 54.211288 1.677469 2941.677734
1.100000 1.200000 1.000000 21.076035 5.257290 471.838318
1.100000 1.200000 1.008333 29.380333 10.540271 974.301270
1.100000 1.200000 1.016667 40.041611 12.964347 1771.404907
1.200000 0.800000 0.983333 23.261517 25.404013 1186.461914
1.200000 0.800000 0.991667 -41.566673 -38.674881 3223.534668
1.200000 0.800000 1.000000 41.249001 -27.266537 2444.944092
1.200000 0.800000 1.008333 27.810455 8.521325 846.034424
1.200000 0.800000 1.016667 -3.075293 54.774788 3009.734863
1.200000 0.900000 0.983333 -16.771763 13.964696 476.304749
1.200000 0.900000 0.991667 41.320984 -16.219004 1970.479736
1.200000 0.900000 1.000000 9.815435 45.610722 2176.680664
1.200000 0.900000 1.008333 -11.075150 15.719793 369.770844
1.200000 0.900000 1.016667 -26.349859 2.890827 702.671936
1.200000 1.000000 0.983333 17.949081 -26.850630 1043.125854
1.200000 1.000000 0.991667 -7.823054 18.084311 388.242493
1.200000 1.000000 1.000000 -15.418627 -27.228004 979.098267
1.200000 1.000000 1.008333 21.196529 -11.254413 575.954651
1.200000 1.000000 1.016667 4.426115 15.471368 258.953705
1.200000 1.100000 0.983333 43.227337 16.399473 2137.545410
1.200000 1.100000 0.991667 8.246212 -17.235680 365.068665
1.200000 1.100000 1.000000 57.439560 3.217903 3309.657959
1.200000 1.100000 1.008333 15.523034 45.014656 2267.283691
1.200000 1.100000 1.016667 -17.966652 10.019929 423.199554
1.200000 1.200000 0.983333 15.489091 32.682629 1308.066162
1.200000 1.200000 0.991667 7.618755 10.939226 177.712097
1.200000 1.200000 1.000000 9.377329 48.350014 2425.658203
1.200000 1.200000 1.008333 -38.350998 14.421421 1678.776489
1.200000 1.200000 1.016667 1.399871 3.761661 16.109728
