#kx 	ky 	kz 	real 	imag 	intensity
2.800000 0.800000 0.800000 -15.793087 9.722523 343.949036
2.800000 0.800000 0.900000 -9.645650 -0.020960 93.039001
2.800000 0.800000 1.000000 -12.060639 -6.460957 187.202972
2.800000 0.800000 1.100000 5.285627 -6.072414 64.812073
2.800000 0.800000 1.200000 -4.917950 9.014117 105.440536
2.800000 0.900000 0.800000 -2.464123 -16.928545 292.647522
2.800000 0.900000 0.900000 8.517403 -7.130058 123.383873
2.800000 0.900000 1.000000 -2.359922 -2.804178 13.432644
2.800000 0.900000 1.100000 3.905545 -22.015764 499.947174
2.800000 0.900000 1.200000 27.240324 -0.720623 742.554565
2.800000 1.000000 0.800000 12.130739 4.500359 167.408066
2.800000 1.000000 0.900000 -1.093786 12.281094 152.021622
2.800000 1.000000 1.000000 -5.378721 -10.807980 145.743057
2.800000 1.000000 1.100000 34.722664 2.539356 1212.111694
2.800000 1.000000 1.200000 -5.341545 46.266731 2169.142334
2.800000 1.100000 0.800000 -10.574026 4.410300 131.260773
2.800000 1.100000 0.900000 -7.888603 -14.263143 265.667297
2.800000 1.100000 1.000000 16.679325 -3.474753 290.273804
2.800000 1.100000 1.100000 -8.871298 25.581018 733.088440
2.800000 1.100000 1.200000 -34.413551 -13.683646 1371.534668
2.800000 1.200000 0.800000 -5.118579 -12.944606 193.762665
2.800000 1.200000 0.900000 20.963903 -7.376392 493.896423
2.800000 1.200000 1.000000 -0.296674 16.368118 268.003296
2.800000 1.200000 1.100000 -9.257511 -15.923452 339.257843
2.800000 1.200000 1.200000 19.751038 -10.038822 490.881439
2.900000 0.800000 0.800000 -24.501999 2.674858 607.502808
2.900000 0.800000 0.900000 -9.715076 -21.783493 568.903259
2.900000 0.800000 1.000000 10.751244 -7.733650 175.398590
2.900000 0.800000 1.100000 0.638725 2.423882 6.283172
2.900000 0.800000 1.200000 -0.185399 -3.108235 9.695499
2.900000 0.900000 0.800000 4.974487 -8.344042 94.368553
2.900000 0.900000 0.900000 -71.063370 94.660187 14010.552734
2.900000 0.900000 1.000000 -158.642273 -100.544495 35276.566406
2.900000 0.900000 1.100000 62.130016 -105.222710 14931.957031
2.900000 0.900000 1.200000 -2.463654 21.002415 447.170990
2.900000 1.000000 0.800000 -8.749416 11.762941 214.919067
2.900000 1.000000 0.900000 -179.748932 -110.158699 44444.617188
2.900000 1.000000 1.000000 128.202728 -282.554993 96273.257812
2.900000 1.000000 1.100000 177.467484 72.155846 36701.171875
2.900000 1.000000 1.200000 -36.326435 -7.647130 1378.088501
2.900000 1.100000 0.800000 -6.459672 -16.668179 319.555542
2.900000 1.100000 0.900000 64.438675 -130.037842 21062.183594
2.900000 1.100000 1.000000 196.169861 59.647045 42040.382812
2.900000 1.100000 1.100000 -34.138500 117.707306 15020.447266
2.900000 1.100000 1.200000 4.425974 -36.235214 1332.579956
2.900000 1.200000 0.800000 17.501438 0.857613 307.035828
2.900000 1.200000 0.900000 8.726980 12.295795 227.346771
2.900000 1.200000 1.000000 -5.340927 5.834049 62.561630
2.900000 1.200000 1.100000 1.681629 -11.062870 125.214966
2.900000 1.200000 1.200000 20.954634 -0.788862 439.718994
3.000000 0.800000 0.800000 -18.933102 -6.353958 398.835114
3.000000 0.800000 0.900000 10.493217 -15.415356 347.740814
3.000000 0.800000 1.000000 7.431519 9.474716 144.997711
3.000000 0.800000 1.100000 1.330093 2.791317 9.560599
3.000000 0.800000 1.200000 1.404644 14.223175 204.271729
3.000000 0.900000 0.800000 -10.625989 -10.914062 232.028381
3.000000 0.900000 0.900000 -149.142578 -104.859451 33239.011719
3.000000 0.900000 1.000000 113.366226 -253.727020 77229.304688
3.000000 0.900000 1.100000 160.478180 49.239479 28177.773438
3.000000 0.900000 1.200000 -13.179874 -9.003536 254.772766
3.000000 1.000000 0.800000 -0.644447 -20.879063 436.350586
3.000000 1.000000 0.900000 133.252838 -275.518097 93666.539062
3.000000 1.000000 1.000000 437.041016 120.148384 205440.484375
3.000000 1.000000 1.100000 -33.751781 269.573730 73809.179688
3.000000 1.000000 1.200000 14.540403 -10.495457 321.577942
3.000000 1.100000 0.800000 18.293053 1.157486 335.975555
3.000000 1.100000 0.900000 191.625809 59.889397 40307.187500
3.000000 1.100000 1.000000 -32.020172 297.625916 89606.476562
3.000000 1.100000 1.100000 -186.116989 6.806870 34685.867188
3.000000 1.100000 1.200000 7.729774 -2.309591 65.083626
3.000000 1.200000 0.800000 -6.983850 12.599698 207.526566
3.000000 1.200000 0.900000 -2.804276 3.733654 21.804134
3.000000 1.200000 1.000000 -9.600822 4.912567 116.309105
3.000000 1.200000 1.100000 -2.750458 -16.665398 285.300476
3.000000 1.200000 1.200000 22.113186 0.808016 489.645874
3.100000 0.800000 0.800000 -19.417912 -5.066940 402.729187
3.100000 0.800000 0.900000 5.670876 -11.548515 165.527039
3.100000 0.800000 1.000000 3.203568 13.053457 180.655594
3.100000 0.800000 1.100000 -13.030333 6.658096 214.119812
3.100000 0.800000 1.200000 -13.553452 0.329958 183.804916
3.100000 0.900000 0.800000 9.900145 -32.797981 1173.720337
3.100000 0.900000 0.900000 68.155281 -94.800400 13632.258789
3.100000 0.900000 1.000000 151.956146 50.983303 25689.966797
3.100000 0.900000 1.100000 -15.463978 87.518616 7898.643066
3.100000 0.900000 1.200000 10.378471 -10.438532 216.675613
3.100000 1.000000 0.800000 34.815353 12.099853 1358.515381
3.100000 1.000000 0.900000 166.707733 71.083893 32844.390625
3.100000 1.000000 1.000000 -34.278580 264.996704 71398.273438
3.100000 1.000000 1.100000 -154.917969 11.909618 24141.416016
3.100000 1.000000 1.200000 -1.432098 18.874430 358.295013
3.100000 1.100000 0.800000 -11.470064 20.606619 556.195129
3.100000 1.100000 0.900000 -29.080372 112.825134 13575.178711
3.100000 1.100000 1.000000 -181.164886 4.743019 32843.210938
3.100000 1.100000 1.100000 -31.307882 -110.025719 13085.842773
3.100000 1.100000 1.200000 -7.346580 -15.020628 279.591492
3.100000 1.200000 0.800000 -0.453733 -5.968348 35.827049
3.100000 1.200000 0.900000 -3.776989 -5.008934 39.355064
3.100000 1.200000 1.000000 2.812088 -12.847419 172.964005
3.100000 1.200000 1.100000 16.588482 -10.479019 384.987579
3.100000 1.200000 1.200000 23.041403 11.285406 658.266663
3.200000 0.800000 0.800000 -18.398203 -15.250745 571.079102
3.200000 0.800000 0.900000 12.687389 -9.639688 253.893433
3.200000 0.800000 1.000000 -12.346860 13.019587 321.954590
3.200000 0.800000 1.100000 -11.947550 -17.445141 447.076904
3.200000 0.800000 1.200000 4.015833 -2.541336 22.585304
3.200000 0.900000 0.800000 25.878866 -1.942313 673.488281
3.200000 0.900000 0.900000 -5.113301 17.118288 319.181641
3.200000 0.900000 1.000000 -11.030839 -16.208281 384.387787
3.200000 0.900000 1.100000 15.111311 -12.758636 391.134521
3.200000 0.900000 1.200000 10.786009 3.579738 129.152512
3.200000 1.000000 0.800000 -15.517582 35.848083 1525.880371
3.200000 1.000000 0.900000 -25.118946 -14.784373 849.539124
3.200000 1.000000 1.000000 12.600187 -7.168850 210.157135
3.200000 1.000000 1.100000 1.997534 12.442168 158.797699
3.200000 1.000000 1.200000 -10.964205 4.529491 140.730072
3.200000 1.100000 0.800000 -26.007256 -13.387919 855.613708
3.200000 1.100000 0.900000 4.971094 -25.990963 700.241943
3.200000 1.100000 1.000000 10.323682 -1.253710 108.150192
3.200000 1.100000 1.100000 -6.338744 -3.982214 56.037701
3.200000 1.100000 1.200000 8.050083 -16.465786 335.925934
3.200000 1.200000 0.800000 -0.169586 3.807842 14.528417
3.200000 1.200000 0.900000 11.414116 -11.798563 269.488129
3.200000 1.200000 1.000000 15.847720 12.882339 417.104919
3.200000 1.200000 1.100000 2.183983 2.694902 12.032279
3.200000 1.200000 1.200000 12.779453 15.641926 407.984253
