#kx 	ky 	kz 	real 	imag 	intensity
7.800000 3.800000 1.800000 -23.329632 -0.779786 544.879822
7.800000 3.800000 1.840000 -21.659744 -7.701231 528.453491
7.800000 3.800000 1.880000 -19.213619 -13.116391 541.202881
7.800000 3.800000 1.920000 -15.443853 -19.217054 607.807739
7.800000 3.800000 1.960000 -7.181752 -24.870705 670.129517
7.800000 3.800000 2.000000 5.711754 -24.813087 648.313477
7.800000 3.800000 2.040000 17.274162 -15.243127 530.749634
7.800000 3.800000 2.080000 19.746014 0.539910 390.196564
7.800000 3.800000 2.120000 11.164604 13.613672 309.980469
7.800000 3.800000 2.160000 -2.369419 17.248959 303.140717
7.800000 3.800000 2.200000 -12.676197 12.645592 320.596985
7.800000 3.840000 1.800000 -17.023430 -22.288691 786.582886
7.800000 3.840000 1.840000 -10.099808 -26.040215 780.098877
7.800000 3.840000 1.880000 -3.064467 -28.175699 803.260986
7.800000 3.840000 1.920000 5.550421 -28.155052 823.514160
7.800000 3.840000 1.960000 14.551368 -23.142391 747.312561
7.800000 3.840000 2.000000 19.141422 -12.860498 531.786499
7.800000 3.840000 2.040000 15.828564 -2.391679 256.263550
7.800000 3.840000 2.080000 7.457194 1.842299 59.003815
7.800000 3.840000 2.120000 1.401371 -0.933263 2.834820
7.800000 3.840000 2.160000 1.728737 -4.379610 22.169516
7.800000 3.840000 2.200000 4.105016 -2.083210 21.190922
7.800000 3.880000 1.800000 3.338008 -33.356453 1123.795288
7.800000 3.880000 1.840000 12.682189 -31.064796 1125.859497
7.800000 3.880000 1.880000 21.112646 -26.404564 1142.944824
7.800000 3.880000 1.920000 27.622665 -17.434870 1066.986328
7.800000 3.880000 1.960000 27.485695 -5.169685 782.189087
7.800000 3.880000 2.000000 18.561186 3.381973 355.955353
7.800000 3.880000 2.040000 7.209358 1.181840 53.371590
7.800000 3.880000 2.080000 4.537262 -9.518084 111.180664
7.800000 3.880000 2.120000 14.681902 -16.394022 484.322205
7.800000 3.880000 2.160000 27.896206 -8.523823 850.853882
7.800000 3.880000 2.200000 28.173590 10.739391 909.085693
7.800000 3.920000 1.800000 25.794800 -26.535557 1369.507568
7.800000 3.920000 1.840000 32.639400 -17.493946 1371.368652
7.800000 3.920000 1.880000 36.248547 -6.517212 1356.431152
7.800000 3.920000 1.920000 33.562546 6.285012 1165.945801
7.800000 3.920000 1.960000 22.030169 14.682669 700.909119
7.800000 3.920000 2.000000 7.792023 10.530211 171.600967
7.800000 3.920000 2.040000 4.204885 -4.935732 42.042503
7.800000 3.920000 2.080000 18.599567 -17.011457 635.333618
7.800000 3.920000 2.120000 40.881634 -9.252014 1756.907715
7.800000 3.920000 2.160000 49.028393 18.646580 2751.478027
7.800000 3.920000 2.200000 29.473234 46.270557 3009.636230
7.800000 3.960000 1.800000 36.604977 -5.689161 1372.290894
7.800000 3.960000 1.840000 35.900490 6.581316 1332.158936
7.800000 3.960000 1.880000 30.629883 17.446377 1242.565796
7.800000 3.960000 1.920000 19.328892 24.265053 962.398804
7.800000 3.960000 1.960000 5.384516 20.644104 455.172028
7.800000 3.960000 2.000000 0.074597 5.540499 30.702698
7.800000 3.960000 2.040000 12.886906 -9.042425 247.837799
7.800000 3.960000 2.080000 37.718273 -4.925627 1446.929932
7.800000 3.960000 2.120000 52.459465 23.791382 3318.025146
7.800000 3.960000 2.160000 37.252914 59.852280 4970.075195
7.800000 3.960000 2.200000 -4.663235 74.230675 5531.938477
7.800000 4.000000 1.800000 29.275644 16.531303 1130.347412
7.800000 4.000000 1.840000 19.908127 24.691448 1006.001099
7.800000 4.000000 1.880000 9.008185 27.188265 820.349121
7.800000 4.000000 1.920000 -1.490727 22.743376 519.483459
7.800000 4.000000 1.960000 -5.552156 10.784534 147.132629
7.800000 4.000000 2.000000 4.005135 -1.472837 18.210352
7.800000 4.000000 2.040000 24.930084 0.183655 621.542847
7.800000 4.000000 2.080000 40.540310 24.035086 2221.202148
7.800000 4.000000 2.120000 30.787609 59.407021 4477.070801
7.800000 4.000000 2.160000 -7.973850 80.130783 6484.524902
7.800000 4.000000 2.200000 -54.698868 65.651260 7302.053711
7.800000 4.040000 1.800000 8.475494 26.985867 800.070984
7.800000 4.040000 1.840000 -4.054461 24.375053 610.581909
7.800000 4.040000 1.880000 -10.937946 15.930904 373.432373
7.800000 4.040000 1.920000 -10.292674 5.547164 136.710175
7.800000 4.040000 1.960000 -0.932037 -1.740123 3.896723
7.800000 4.040000 2.000000 14.419736 1.615706 210.539291
7.800000 4.040000 2.040000 25.236416 20.549397 1059.154419
7.800000 4.040000 2.080000 17.365791 48.746689 2677.810547
7.800000 4.040000 2.120000 -14.332537 67.596436 4774.699707
7.800000 4.040000 2.160000 -56.652966 58.582386 6641.454590
7.800000 4.040000 2.200000 -84.203201 20.172680 7497.116211
7.800000 4.080000 1.800000 -13.538189 20.188652 590.864258
7.800000 4.080000 1.840000 -19.578787 6.521460 425.858337
7.800000 4.080000 1.880000 -13.875678 -6.173950 230.652100
7.800000 4.080000 1.920000 -0.547466 -10.329904 107.006630
7.800000 4.080000 1.960000 12.954669 -2.546295 174.307068
7.800000 4.080000 2.000000 18.023788 15.641050 569.499390
7.800000 4.080000 2.040000 7.635103 36.756874 1409.362549
7.800000 4.080000 2.080000 -18.830055 48.370018 2694.229736
7.800000 4.080000 2.120000 -51.693207 39.190815 4208.107422
7.800000 4.080000 2.160000 -73.854431 8.022465 5518.836914
7.800000 4.080000 2.200000 -71.387466 -32.322941 6140.942871
7.800000 4.120000 1.800000 -24.999876 0.877714 625.764160
7.800000 4.120000 1.840000 -17.550947 -16.285765 573.261841
7.800000 4.120000 1.880000 0.729453 -21.881779 479.344330
7.800000 4.120000 1.920000 17.573307 -11.286659 436.209778
7.800000 4.120000 1.960000 21.308613 9.757418 549.264160
7.800000 4.120000 2.000000 7.773822 28.994562 901.116943
7.800000 4.120000 2.040000 -17.621494 34.681854 1513.348145
7.800000 4.120000 2.080000 -42.937405 21.754042 2316.859131
7.800000 4.120000 2.120000 -55.816090 -5.629996 3147.132568
7.800000 4.120000 2.160000 -49.733292 -36.151417 3780.325195
7.800000 4.120000 2.200000 -27.334133 -57.145878 4012.806152
7.800000 4.160000 1.800000 -21.492243 -20.107862 866.242676
7.800000 4.160000 1.840000 -1.647003 -30.419241 928.042847
7.800000 4.160000 1.880000 20.400040 -21.868906 894.410645
7.800000 4.160000 1.920000 28.735409 1.276908 827.354187
7.800000 4.160000 1.960000 16.341122 23.615910 824.743408
7.800000 4.160000 2.000000 -9.500542 29.751553 975.415222
7.800000 4.160000 2.040000 -32.669849 15.172582 1297.526367
7.800000 4.160000 2.080000 -39.709671 -11.454536 1708.064453
7.800000 4.160000 2.120000 -28.159393 -35.498970 2053.128418
7.800000 4.160000 2.160000 -6.116587 -46.437622 2193.865234
7.800000 4.160000 2.200000 15.099236 -43.093002 2084.993652
7.800000 4.200000 1.800000 -7.250136 -33.172249 1152.962524
7.800000 4.200000 1.840000 16.926563 -30.982792 1246.441895
7.800000 4.200000 1.880000 32.459255 -10.512984 1164.126099
7.800000 4.200000 1.920000 27.170712 15.159541 968.059265
7.800000 4.200000 1.960000 4.082475 27.647552 781.053772
7.800000 4.200000 2.000000 -20.167202 17.881676 726.470337
7.800000 4.200000 2.040000 -28.369579 -6.683329 849.499878
7.800000 4.200000 2.080000 -15.964963 -28.584047 1071.927856
7.800000 4.200000 2.120000 6.797475 -34.426991 1231.423340
7.800000 4.200000 2.160000 24.667889 -24.138348 1191.164551
7.800000 4.200000 2.200000 29.547720 -8.294338 941.863770
7.840000 3.800000 1.800000 -20.794952 5.500273 462.683044
7.840000 3.800000 1.840000 -25.181877 -4.756109 656.747559
7.840000 3.800000 1.880000 -22.253052 -18.231153 827.573242
7.840000 3.800000 1.920000 -10.043590 -28.534893 915.113831
7.840000 3.800000 1.960000 7.355684 -28.787683 882.836792
7.840000 3.800000 2.000000 21.068920 -17.332342 744.309448
7.840000 3.800000 2.040000 23.600107 -0.202387 557.006042
7.840000 3.800000 2.080000 14.809291 12.937269 386.688049
7.840000 3.800000 2.120000 1.747574 16.311914 269.132568
7.840000 3.800000 2.160000 -7.867302 11.870968 202.814316
7.840000 3.800000 2.200000 -12.005037 5.622625 175.734848
7.840000 3.840000 1.800000 -13.847949 -13.332443 369.519714
7.840000 3.840000 1.840000 -6.913714 -21.472363 508.861786
7.840000 3.840000 1.880000 5.975166 -23.795906 601.947754
7.840000 3.840000 1.920000 18.329973 -16.066658 594.125427
7.840000 3.840000 1.960000 21.729172 -1.497991 474.400879
7.840000 3.840000 2.000000 13.632854 10.277435 291.480408
7.840000 3.840000 2.040000 0.905787 11.263145 127.678894
7.840000 3.840000 2.080000 -5.795843 2.893368 41.963375
7.840000 3.840000 2.120000 -2.225178 -4.969536 29.647703
7.840000 3.840000 2.160000 4.996776 -3.899124 40.170940
7.840000 3.840000 2.200000 5.158205 3.930113 42.052864
7.840000 3.880000 1.800000 5.166123 -20.052000 428.771545
7.840000 3.880000 1.840000 18.574015 -16.624512 621.368408
7.840000 3.880000 1.880000 28.135708 -2.076540 795.930054
7.840000 3.880000 1.920000 23.667980 17.631330 871.037109
7.840000 3.880000 1.960000 4.160675 28.096096 806.701843
7.840000 3.880000 2.000000 -17.277634 18.868597 654.540588
7.840000 3.880000 2.040000 -22.739048 -4.556175 537.823059
7.840000 3.880000 2.080000 -6.344816 -22.734154 557.098450
7.840000 3.880000 2.120000 18.125183 -19.120152 694.102478
7.840000 3.880000 2.160000 28.371557 3.570154 817.691223
7.840000 3.880000 2.200000 14.413111 24.419725 804.060791
7.840000 3.920000 1.800000 22.104626 -9.321714 575.508850
7.840000 3.920000 1.840000 29.868046 7.660089 950.777100
7.840000 3.920000 1.880000 22.265587 30.359615 1417.462646
7.840000 3.920000 1.920000 -3.777704 42.533962 1823.408936
7.840000 3.920000 1.960000 -33.863590 29.342129 2007.703369
7.840000 3.920000 2.000000 -43.800461 -5.452290 1948.207764
7.840000 3.920000 2.040000 -21.213360 -36.978996 1817.452759
7.840000 3.920000 2.080000 19.399300 -38.409691 1851.637207
7.840000 3.920000 2.120000 45.717957 -6.048073 2126.710693
7.840000 3.920000 2.160000 35.428009 34.605457 2452.681641
7.840000 3.920000 2.200000 -2.830639 50.109715 2518.995850
7.840000 3.960000 1.800000 23.751364 10.749540 679.679871
7.840000 3.960000 1.840000 16.111143 31.684450 1263.473267
7.840000 3.960000 1.880000 -9.470529 44.665668 2084.712891
7.840000 3.960000 1.920000 -42.480274 33.215958 2907.873535
7.840000 3.960000 1.960000 -58.245159 -4.216246 3410.275146
7.840000 3.960000 2.000000 -37.886646 -44.894119 3450.879883
7.840000 3.960000 2.040000 10.289743 -56.043167 3246.715576
7.840000 3.960000 2.080000 51.622101 -23.828468 3232.637207
7.840000 3.960000 2.120000 52.394371 30.368153 3667.394775
7.840000 3.960000 2.160000 10.215897 65.102295 4342.673340
7.840000 3.960000 2.200000 -42.127419 54.071274 4698.421875
7.840000 4.000000 1.800000 8.332707 24.573364 673.284241
7.840000 4.000000 1.840000 -12.524369 34.808296 1368.477295
7.840000 4.000000 1.880000 -41.069977 26.438488 2385.736816
7.840000 4.000000 1.920000 -58.397606 -5.613938 3441.796631
7.840000 4.000000 1.960000 -44.611546 -46.098198 4115.233887
7.840000 4.000000 2.000000 0.098883 -64.731766 4190.211426
7.840000 4.000000 2.040000 47.638420 -40.678020 3924.120605
7.840000 4.000000 2.080000 60.734413 14.935207 3911.729492
7.840000 4.000000 2.120000 25.018751 62.821060 4572.423340
7.840000 4.000000 2.160000 -35.566380 66.557205 5694.828613
7.840000 4.000000 2.200000 -77.038971 23.772772 6500.147461
7.840000 4.040000 1.800000 -13.064467 21.115160 616.530273
7.840000 4.040000 1.840000 -33.318645 13.413923 1290.065430
7.840000 4.040000 1.880000 -46.068375 -10.645538 2235.622559
7.840000 4.040000 1.920000 -36.956394 -42.619926 3182.233154
7.840000 4.040000 1.960000 -2.390125 -61.160816 3746.358154
7.840000 4.040000 2.000000 39.973892 -46.410263 3751.824707
7.840000 4.040000 2.040000 59.079231 -0.223058 3490.405273
7.840000 4.040000 2.080000 35.056904 48.580986 3589.098633
7.840000 4.040000 2.120000 -20.611658 63.779278 4492.636719
7.840000 4.040000 2.160000 -70.523651 31.674309 5976.847168
7.840000 4.040000 2.200000 -80.585167 -26.153427 7177.971191
7.840000 4.080000 1.800000 -25.206524 2.063523 639.626953
7.840000 4.080000 1.840000 -30.525282 -16.562384 1206.105469
7.840000 4.080000 1.880000 -21.138657 -37.775280 1873.814575
7.840000 4.080000 1.920000 3.930131 -49.216354 2437.695557
7.840000 4.080000 1.960000 34.309937 -38.661598 2671.890869
7.840000 4.080000 2.000000 50.120544 -5.389262 2541.113281
7.840000 4.080000 2.040000 35.219139 33.298332 2349.166748
7.840000 4.080000 2.080000 -7.191764 50.561653 2608.202148
7.840000 4.080000 2.120000 -52.166862 30.240051 3635.842285
7.840000 4.080000 2.160000 -69.702103 -18.149836 5187.799805
7.840000 4.080000 2.200000 -47.970795 -64.760925 6495.174805
7.840000 4.120000 1.800000 -20.087742 -20.242950 813.294434
7.840000 4.120000 1.840000 -7.638734 -34.267860 1232.636475
7.840000 4.120000 1.880000 12.950971 -37.214317 1552.633057
7.840000 4.120000 1.920000 32.364304 -24.969952 1670.946533
7.840000 4.120000 1.960000 39.466564 -0.631574 1558.008667
7.840000 4.120000 2.000000 26.914223 24.521194 1325.664307
7.840000 4.120000 2.040000 -2.459917 35.125832 1239.875244
7.840000 4.120000 2.080000 -33.994884 21.136452 1602.401855
7.840000 4.120000 2.120000 -48.481972 -13.377215 2529.451416
7.840000 4.120000 2.160000 -35.183060 -50.443359 3782.380127
7.840000 4.120000 2.200000 -0.361614 -69.488670 4828.806152
7.840000 4.160000 1.800000 -1.823025 -32.680496 1071.338257
7.840000 4.160000 1.840000 18.095346 -31.210529 1301.538696
7.840000 4.160000 1.880000 32.393387 -15.816374 1299.489258
7.840000 4.160000 1.920000 32.511684 5.666525 1089.119141
7.840000 4.160000 1.960000 17.840279 21.781132 792.693237
7.840000 4.160000 2.000000 -4.368491 23.782715 584.701294
7.840000 4.160000 2.040000 -22.949907 9.915000 625.005493
7.840000 4.160000 2.080000 -28.251347 -13.876162 990.686462
7.840000 4.160000 2.120000 -16.754475 -36.709599 1628.307007
7.840000 4.160000 2.160000 7.044033 -47.977615 2351.469971
7.840000 4.160000 2.200000 32.788845 -42.775280 2904.833008
7.840000 4.200000 1.800000 18.063728 -30.513836 1257.392456
7.840000 4.200000 1.840000 32.003029 -15.381101 1260.772095
7.840000 4.200000 1.880000 31.172171 5.723947 1004.467773
7.840000 4.200000 1.920000 15.743591 19.672461 634.866394
7.840000 4.200000 1.960000 -4.280939 18.177597 348.751495
7.840000 4.200000 2.000000 -16.560007 3.209633 284.535583
7.840000 4.200000 2.040000 -14.727066 -15.473313 456.309906
7.840000 4.200000 2.080000 -1.259887 -27.669880 767.209595
7.840000 4.200000 2.120000 16.025085 -28.697779 1080.365845
7.840000 4.200000 2.160000 29.729757 -20.257742 1294.234619
7.840000 4.200000 2.200000 36.333931 -7.268080 1372.979492
7.880000 3.800000 1.800000 -27.009842 12.100321 875.949341
7.880000 3.800000 1.840000 -32.267479 -6.838968 1087.961670
7.880000 3.800000 1.880000 -21.369141 -26.030249 1134.213989
7.880000 3.800000 1.920000 0.958717 -32.276733 1042.706665
7.880000 3.800000 1.960000 20.874996 -21.079769 880.122131
7.880000 3.800000 2.000000 26.387730 -0.671551 696.763245
7.880000 3.800000 2.040000 16.888069 14.977123 509.521118
7.880000 3.800000 2.080000 2.467342 17.902506 326.587494
7.880000 3.800000 2.120000 -6.146107 11.534835 170.827042
7.880000 3.800000 2.160000 -6.865764 5.034946 72.489395
7.880000 3.800000 2.200000 -5.699942 2.989937 41.429054
7.880000 3.840000 1.800000 -20.109760 -6.268427 443.695648
7.880000 3.840000 1.840000 -8.772808 -16.398640 345.877533
7.880000 3.840000 1.880000 7.440380 -13.050790 225.682373
7.880000 3.840000 1.920000 14.543552 2.585590 218.200195
7.880000 3.840000 1.960000 5.721245 17.403597 335.617828
7.880000 3.840000 2.000000 -11.295738 18.202503 458.924805
7.880000 3.840000 2.040000 -20.927092 4.574581 458.869965
7.880000 3.840000 2.080000 -14.703556 -10.317009 322.635254
7.880000 3.840000 2.120000 0.339029 -12.549349 157.601105
7.880000 3.840000 2.160000 8.705070 -1.427612 77.816315
7.880000 3.840000 2.200000 2.367853 9.751775 100.703842
7.880000 3.880000 1.800000 -3.421287 -11.022596 133.202835
7.880000 3.880000 1.840000 10.627865 -0.802328 113.595238
7.880000 3.880000 1.880000 9.310040 21.628586 554.472534
7.880000 3.880000 1.920000 -14.110008 36.426006 1525.946167
7.880000 3.880000 1.960000 -44.635601 25.219307 2628.350342
7.880000 3.880000 2.000000 -56.209679 -9.191387 3244.009766
7.880000 3.880000 2.040000 -35.743393 -41.799923 3024.823730
7.880000 3.880000 2.080000 2.695858 -46.547028 2173.893311
7.880000 3.880000 2.120000 28.933605 -20.496929 1257.277588
7.880000 3.880000 2.160000 23.816998 12.769222 730.302429
7.880000 3.880000 2.200000 -3.386650 24.794970 626.259949
7.880000 3.920000 1.800000 7.506277 -0.723819 56.868111
7.880000 3.920000 1.840000 5.458860 24.468258 628.494751
7.880000 3.920000 1.880000 -24.083515 43.126511 2439.911621
7.880000 3.920000 1.920000 -66.373245 29.239059 5260.330078
7.880000 3.920000 1.960000 -86.784775 -19.503197 7911.971680
7.880000 3.920000 2.000000 -61.159363 -72.549126 9003.843750
7.880000 3.920000 2.040000 -1.521111 -89.346451 7985.102051
7.880000 3.920000 2.080000 50.046234 -55.500229 5584.900879
7.880000 3.920000 2.120000 56.730652 2.439665 3224.318848
7.880000 3.920000 2.160000 19.218699 39.413479 1922.780762
7.880000 3.920000 2.200000 -26.048477 31.372238 1662.740479
7.880000 3.960000 1.800000 3.010368 12.456688 164.231384
7.880000 3.960000 1.840000 -21.666130 33.034286 1560.685303
7.880000 3.960000 1.880000 -65.757217 24.812304 4939.662109
7.880000 3.960000 1.920000 -95.228386 -24.285713 9658.241211
7.880000 3.960000 1.960000 -75.816589 -89.317284 13725.732422
7.880000 3.960000 2.000000 -8.089756 -122.390343 15044.839844
7.880000 3.960000 2.040000 65.330078 -93.375160 12986.939453
7.880000 3.960000 2.080000 92.359375 -19.807232 8922.580078
7.880000 3.960000 2.120000 56.207928 44.869179 5172.574219
7.880000 3.960000 2.160000 -9.903214 56.336227 3271.844238
7.880000 3.960000 2.200000 -52.751854 16.220440 3045.860840
7.880000 4.000000 1.800000 -11.963311 13.876773 335.685638
7.880000 4.000000 1.840000 -46.456955 12.839607 2323.104248
7.880000 4.000000 1.880000 -77.390274 -24.289045 6579.211914
7.880000 4.000000 1.920000 -69.536072 -85.593216 12161.463867
7.880000 4.000000 1.960000 -10.328621 -128.792297 16694.134766
7.880000 4.000000 2.000000 69.745567 -113.965401 17852.556641
7.880000 4.000000 2.040000 115.628540 -41.902756 15125.799805
7.880000 4.000000 2.080000 93.175934 40.224449 10299.761719
7.880000 4.000000 2.120000 20.234343 75.630524 6129.404785
7.880000 4.000000 2.160000 -47.461678 45.216621 4297.153809
7.880000 4.000000 2.200000 -63.746059 -18.388573 4401.699707
7.880000 4.040000 1.800000 -22.498381 -0.321405 506.280426
7.880000 4.040000 1.840000 -45.437889 -22.083033 2552.262207
7.880000 4.040000 1.880000 -45.536766 -66.590019 6507.827637
7.880000 4.040000 1.920000 -4.764972 -106.676643 11402.611328
7.880000 4.040000 1.960000 63.317593 -105.477104 15134.537109
7.880000 4.040000 2.000000 115.310715 -49.999809 15796.541016
7.880000 4.040000 2.040000 110.656403 30.186810 13156.083008
7.880000 4.040000 2.080000 48.145973 81.514595 8962.664062
7.880000 4.040000 2.120000 -29.088179 69.521896 5679.416016
7.880000 4.040000 2.160000 -67.757233 7.759286 4651.249023
7.880000 4.040000 2.200000 -47.680878 -54.820793 5278.785156
7.880000 4.080000 1.800000 -17.156425 -19.984066 693.705811
7.880000 4.080000 1.840000 -17.382835 -44.790436 2308.346191
7.880000 4.080000 1.880000 6.221215 -70.629631 5027.248535
7.880000 4.080000 1.920000 51.295116 -74.071495 8117.775391
7.880000 4.080000 1.960000 93.125420 -39.570339 10238.155273
7.880000 4.080000 2.000000 99.267334 21.254656 10305.764648
7.880000 4.080000 2.040000 57.291885 71.475830 8391.154297
7.880000 4.080000 2.080000 -9.721247 75.606201 5810.800293
7.880000 4.080000 2.120000 -57.649406 29.575752 4198.179199
7.880000 4.080000 2.160000 -55.757435 -34.112312 4272.541504
7.880000 4.080000 2.200000 -10.700121 -72.415878 5358.552246
7.880000 4.120000 1.800000 2.314835 -30.231056 919.275208
7.880000 4.120000 1.840000 16.936781 -39.866898 1876.224121
7.880000 4.120000 1.880000 40.514816 -38.557991 3128.168945
7.880000 4.120000 1.920000 62.935341 -18.592281 4306.530273
7.880000 4.120000 1.960000 67.787598 17.121737 4888.312012
7.880000 4.120000 2.000000 44.363239 50.927418 4561.698730
7.880000 4.120000 2.040000 0.220703 59.703159 3564.516113
7.880000 4.120000 2.080000 -39.265884 33.083267 2636.312256
7.880000 4.120000 2.120000 -47.878944 -15.133809 2521.425537
7.880000 4.120000 2.160000 -19.206535 -54.868217 3379.412109
7.880000 4.120000 2.200000 27.671993 -62.084534 4620.228516
7.880000 4.160000 1.800000 23.371939 -24.094296 1126.782593
7.880000 4.160000 1.840000 34.944870 -15.279119 1454.595337
7.880000 4.160000 1.880000 40.274811 -0.133221 1622.078125
7.880000 4.160000 1.920000 36.165352 17.040974 1598.327393
7.880000 4.160000 1.960000 21.629665 30.194836 1379.570557
7.880000 4.160000 2.000000 -0.202217 32.129513 1032.346436
7.880000 4.160000 2.040000 -20.355974 18.181177 744.920898
7.880000 4.160000 2.080000 -26.800730 -8.288372 786.976196
7.880000 4.160000 2.120000 -12.426464 -34.474434 1342.903564
7.880000 4.160000 2.160000 17.829948 -44.807205 2325.592773
7.880000 4.160000 2.200000 48.245522 -31.986294 3350.753418
7.880000 4.200000 1.800000 33.940987 -7.127368 1202.790039
7.880000 4.200000 1.840000 31.503590 8.332961 1061.914429
7.880000 4.200000 1.880000 19.787994 17.992849 715.307373
7.880000 4.200000 1.920000 5.914028 17.728331 349.269440
7.880000 4.200000 1.960000 -3.519009 9.800953 108.442101
7.880000 4.200000 2.000000 -6.201801 -0.976263 39.415428
7.880000 4.200000 2.040000 -2.857651 -11.192701 133.442734
7.880000 4.200000 2.080000 5.748205 -18.962416 392.615082
7.880000 4.200000 2.120000 19.030098 -21.675556 831.974365
7.880000 4.200000 2.160000 34.074944 -15.880588 1413.294922
7.880000 4.200000 2.200000 44.627953 -0.614700 1992.031982
7.920000 3.800000 1.800000 -38.848579 11.331734 1637.620361
7.920000 3.800000 1.840000 -37.473225 -15.021160 1629.877808
7.920000 3.800000 1.880000 -16.207153 -32.539543 1321.493652
7.920000 3.800000 1.920000 10.661163 -28.786385 942.316345
7.920000 3.800000 1.960000 24.739614 -8.002041 676.081177
7.920000 3.800000 2.000000 19.098455 12.974403 533.086182
7.920000 3.800000 2.040000 3.087259 19.941898 407.210480
7.920000 3.800000 2.080000 -7.913162 13.083209 233.788498
7.920000 3.800000 2.120000 -7.207592 4.171362 69.349640
7.920000 3.800000 2.160000 -1.247740 3.025364 10.709682
7.920000 3.800000 2.200000 -0.206419 7.797911 60.850029
7.920000 3.840000 1.800000 -31.004622 -7.355778 1015.394043
7.920000 3.840000 1.840000 -15.668835 -14.986919 470.120117
7.920000 3.840000 1.880000 -2.646637 -6.082912 44.006512
7.920000 3.840000 1.920000 -5.133911 8.844330 104.579208
7.920000 3.840000 1.960000 -20.562510 12.842934 587.757751
7.920000 3.840000 2.000000 -32.601593 -0.422394 1063.042358
7.920000 3.840000 2.040000 -27.275261 -19.725880 1133.050171
7.920000 3.840000 2.080000 -7.251984 -26.982273 780.634338
7.920000 3.840000 2.120000 10.321727 -15.209063 337.853638
7.920000 3.840000 2.160000 10.716084 4.307817 133.391754
7.920000 3.840000 2.200000 -3.674711 13.277651 189.799515
7.920000 3.880000 1.800000 -16.507957 -12.293983 423.654694
7.920000 3.880000 1.840000 -9.555874 3.279311 102.068611
7.920000 3.880000 1.880000 -26.178389 19.955410 1083.526367
7.920000 3.880000 1.920000 -57.473026 12.822632 3467.568604
7.920000 3.880000 1.960000 -74.580406 -23.725277 6125.125488
7.920000 3.880000 2.000000 -55.416862 -66.254303 7460.661133
7.920000 3.880000 2.040000 -7.832161 -81.264671 6665.289551
7.920000 3.880000 2.080000 34.798096 -55.933746 4339.491211
7.920000 3.880000 2.120000 42.805283 -10.780293 1948.506958
7.920000 3.880000 2.160000 16.616909 18.807205 629.832642
7.920000 3.880000 2.200000 -15.154726 14.592113 442.595520
7.920000 3.920000 1.800000 -9.070362 -6.602251 125.861191
7.920000 3.920000 1.840000 -27.349888 15.143850 977.352539
7.920000 3.920000 1.880000 -69.307281 9.293716 4889.872559
7.920000 3.920000 1.920000 -98.441528 -39.350842 11239.222656
7.920000 3.920000 1.960000 -77.950630 -105.112221 17124.878906
7.920000 3.920000 2.000000 -8.567898 -138.510178 19258.476562
7.920000 3.920000 2.040000 66.016762 -109.868156 16429.224609
7.920000 3.920000 2.080000 94.746216 -38.146698 10432.016602
7.920000 3.920000 2.120000 63.522964 24.223995 4621.968750
7.920000 3.920000 2.160000 6.074217 37.073257 1411.322510
7.920000 3.920000 2.200000 -28.598270 5.534054 848.486816
7.920000 3.960000 1.800000 -12.250118 -2.876337 158.338715
7.920000 3.960000 1.840000 -50.738758 0.906281 2575.242920
7.920000 3.960000 1.880000 -88.947540 -41.475357 9631.870117
7.920000 3.960000 1.920000 -79.974350 -115.978012 19846.796875
7.920000 3.960000 1.960000 -7.563099 -169.013931 28622.910156
7.920000 3.960000 2.000000 89.996727 -151.938354 31184.673828
7.920000 3.960000 2.040000 146.752411 -67.594788 26105.324219
7.920000 3.960000 2.080000 125.125275 27.451908 16409.941406
7.920000 3.960000 2.120000 48.680519 70.029228 7273.885742
7.920000 3.960000 2.160000 -20.062902 43.368229 2283.323242
7.920000 3.960000 2.200000 -35.210835 -13.453639 1420.803223
7.920000 4.000000 1.800000 -16.800709 -9.557936 373.617950
7.920000 4.000000 1.840000 -52.474213 -33.042793 3845.369141
7.920000 4.000000 1.880000 -58.164886 -95.520920 12507.400391
7.920000 4.000000 1.920000 -2.740173 -156.047531 24358.339844
7.920000 4.000000 1.960000 94.994995 -158.425507 34122.687500
7.920000 4.000000 2.000000 172.096466 -83.389992 36571.085938
7.920000 4.000000 2.040000 172.132935 26.916323 30354.236328
7.920000 4.000000 2.080000 95.394669 99.891632 19078.480469
7.920000 4.000000 2.120000 0.131517 92.902786 8630.945312
7.920000 4.000000 2.160000 -47.676178 27.175262 3011.512939
7.920000 4.000000 2.200000 -28.861099 -35.825249 2116.411621
7.920000 4.040000 1.800000 -11.029324 -22.101213 610.109619
7.920000 4.040000 1.840000 -23.695328 -59.181305 4063.895264
7.920000 4.040000 1.880000 6.180208 -108.977615 11914.316406
7.920000 4.040000 1.920000 80.760147 -125.401825 22247.820312
7.920000 4.040000 1.960000 157.421188 -75.672913 30507.820312
7.920000 4.040000 2.000000 178.319580 23.189228 32335.613281
7.920000 4.040000 2.040000 120.864929 110.187294 26749.570312
7.920000 4.040000 2.080000 21.512070 128.454407 16963.304688
7.920000 4.040000 2.120000 -52.321098 72.920105 8054.838867
7.920000 4.040000 2.160000 -57.895351 -7.080169 3402.000732
7.920000 4.040000 2.200000 -9.083669 -52.317062 2819.587891
7.920000 4.080000 1.800000 6.639196 -27.638241 807.951294
7.920000 4.080000 1.840000 16.846283 -55.040947 3313.303223
7.920000 4.080000 1.880000 58.312325 -71.709824 8542.625977
7.920000 4.080000 1.920000 113.360825 -48.095181 15163.823242
7.920000 4.080000 1.960000 141.122849 19.135651 20281.832031
7.920000 4.080000 2.000000 110.675186 94.793701 21234.843750
7.920000 4.080000 2.040000 32.146866 128.497665 17545.072266
7.920000 4.080000 2.080000 -45.853485 96.246712 11365.971680
7.920000 4.080000 2.120000 -73.861946 22.206833 5948.730469
7.920000 4.080000 2.160000 -41.209156 -40.834778 3365.673828
7.920000 4.080000 2.200000 18.403641 -54.908699 3353.659424
7.920000 4.120000 1.800000 25.594635 -17.959915 977.643921
7.920000 4.120000 1.840000 40.597710 -23.973131 2222.885010
7.920000 4.120000 1.880000 65.667847 -14.920149 4534.876953
7.920000 4.120000 1.920000 83.549332 17.886177 7300.406250
7.920000 4.120000 1.960000 72.583427 63.520828 9303.250000
7.920000 4.120000 2.000000 27.376289 93.536324 9498.504883
7.920000 4.120000 2.040000 -30.394196 83.045273 7820.324707
7.920000 4.120000 2.080000 -64.726440 33.607651 5318.986328
7.920000 4.120000 2.120000 -53.287338 -24.299103 3429.986816
7.920000 4.120000 2.160000 -5.992964 -53.928181 2944.164307
7.920000 4.120000 2.200000 43.315235 -40.672394 3530.453125
7.920000 4.160000 1.800000 33.066551 2.435402 1099.328003
7.920000 4.160000 1.840000 35.340973 9.703977 1343.151489
7.920000 4.160000 1.880000 35.803429 20.339066 1695.563110
7.920000 4.160000 1.920000 29.886406 34.473801 2081.640137
7.920000 4.160000 1.960000 12.762268 46.095692 2287.688232
7.920000 4.160000 2.000000 -13.072319 44.366226 2139.247559
7.920000 4.160000 2.040000 -34.582359 22.914932 1721.033691
7.920000 4.160000 2.080000 -35.720112 -10.977535 1396.432617
7.920000 4.160000 2.120000 -11.145285 -37.851524 1556.955322
7.920000 4.160000 2.160000 26.651081 -39.691196 2285.671387
7.920000 4.160000 2.200000 55.034481 -14.413948 3236.556152
7.920000 4.200000 1.800000 25.750868 20.845200 1097.629517
7.920000 4.200000 1.840000 13.621013 24.657410 793.519836
7.920000 4.200000 1.880000 3.217558 20.277916 421.546570
7.920000 4.200000 1.920000 -1.077667 12.714141 162.810745
7.920000 4.200000 1.960000 -1.283741 7.001637 50.670918
7.920000 4.200000 2.000000 -1.513893 2.714592 9.660882
7.920000 4.200000 2.040000 -1.357806 -4.013008 17.947872
7.920000 4.200000 2.080000 4.592848 -13.311447 198.288879
7.920000 4.200000 2.120000 19.691462 -18.151724 717.238770
7.920000 4.200000 2.160000 38.492264 -9.854355 1578.762695
7.920000 4.200000 2.200000 48.657005 12.402138 2521.317139
7.960000 3.800000 1.800000 -48.299259 1.386728 2334.741455
7.960000 3.800000 1.840000 -36.933941 -25.859146 2032.811401
7.960000 3.800000 1.880000 -9.378052 -35.869408 1374.562256
7.960000 3.800000 1.920000 14.892830 -23.000500 750.819397
7.960000 3.800000 1.960000 20.341339 0.478104 413.998657
7.960000 3.800000 2.000000 8.235077 15.892258 320.380341
7.960000 3.800000 2.040000 -6.331715 14.897783 262.034546
7.960000 3.800000 2.080000 -9.943665 5.372828 127.743752
7.960000 3.800000 2.120000 -3.142244 1.246952 11.428589
7.960000 3.800000 2.160000 2.467671 7.524908 62.713642
7.960000 3.800000 2.200000 -1.726027 16.152882 263.894745
7.960000 3.840000 1.800000 -39.200527 -17.190500 1832.194580
7.960000 3.840000 1.840000 -23.720728 -21.225126 1013.178894
7.960000 3.840000 1.880000 -16.356792 -13.063087 438.188904
7.960000 3.840000 1.920000 -22.198687 -7.068100 542.739746
7.960000 3.840000 1.960000 -30.920008 -14.251213 1159.143921
7.960000 3.840000 2.000000 -27.645477 -30.341091 1684.854248
7.960000 3.840000 2.040000 -8.902534 -39.458378 1636.218750
7.960000 3.840000 2.080000 12.617558 -30.049738 1062.189453
7.960000 3.840000 2.120000 19.765808 -7.171707 442.120544
7.960000 3.840000 2.160000 7.661598 11.608224 193.450958
7.960000 3.840000 2.200000 -11.380298 12.929014 296.670593
7.960000 3.880000 1.800000 -25.632732 -24.404846 1252.633545
7.960000 3.880000 1.840000 -28.263187 -12.400242 952.573730
7.960000 3.880000 1.880000 -49.361328 -13.703060 2624.314697
7.960000 3.880000 1.920000 -65.832214 -42.405586 6132.114258
7.960000 3.880000 1.960000 -51.295242 -83.882141 9667.415039
7.960000 3.880000 2.000000 -4.043732 -104.942520 11029.284180
7.960000 3.880000 2.040000 47.295685 -84.311523 9345.314453
7.960000 3.880000 2.080000 67.654099 -33.887123 5725.414062
7.960000 3.880000 2.120000 46.676888 10.686127 2292.925293
7.960000 3.880000 2.160000 7.092449 21.526230 513.681396
7.960000 3.880000 2.200000 -17.408676 1.880009 306.596436
7.960000 3.920000 1.800000 -16.238497 -24.903049 883.850647
7.960000 3.920000 1.840000 -43.052582 -20.182634 2260.863525
7.960000 3.920000 1.880000 -72.179771 -54.284924 8156.772461
7.960000 3.920000 1.920000 -61.726025 -116.091995 17287.453125
7.960000 3.920000 1.960000 2.662849 -158.822876 25231.794922
7.960000 3.920000 2.000000 87.099617 -140.811584 27414.246094
7.960000 3.920000 2.040000 134.807892 -66.146561 22548.535156
7.960000 3.920000 2.080000 115.485535 15.585186 13579.807617
7.960000 3.920000 2.120000 51.523441 51.783485 5336.194336
7.960000 3.920000 2.160000 -3.966492 31.280615 994.209900
7.960000 3.920000 2.200000 -15.248352 -11.019075 353.932251
7.960000 3.960000 1.800000 -10.210367 -26.405357 801.494507
7.960000 3.960000 1.840000 -44.599705 -46.956688 4194.063965
7.960000 3.960000 1.880000 -49.312000 -109.287262 14375.378906
7.960000 3.960000 1.920000 9.408207 -169.655594 28871.535156
7.960000 3.960000 1.960000 110.787796 -169.050537 40852.019531
7.960000 3.960000 2.000000 188.714005 -89.508720 43624.789062
7.960000 3.960000 2.040000 187.206421 23.220427 35585.429688
7.960000 3.960000 2.080000 110.531609 95.863663 21407.078125
7.960000 3.960000 2.120000 19.219820 89.921837 8455.337891
7.960000 3.960000 2.160000 -24.203077 31.161119 1556.804321
7.960000 3.960000 2.200000 -7.371224 -19.990538 453.956543
7.960000 4.000000 1.800000 -0.761868 -29.653004 879.881042
7.960000 4.000000 1.840000 -18.673176 -71.360229 5440.969727
7.960000 4.000000 1.880000 15.922958 -131.659668 17587.808594
7.960000 4.000000 1.920000 106.406113 -151.499832 34274.460938
7.960000 4.000000 1.960000 198.973816 -90.579948 47795.304688
7.960000 4.000000 2.000000 223.517914 28.166744 50753.625000
7.960000 4.000000 2.040000 156.243683 130.568451 41460.210938
7.960000 4.000000 2.080000 43.604572 152.604248 25189.416016
7.960000 4.000000 2.120000 -37.088081 94.094467 10229.293945
7.960000 4.000000 2.160000 -43.453014 14.217085 2090.290039
7.960000 4.000000 2.200000 1.842052 -24.818441 619.348145
7.960000 4.040000 1.800000 14.555604 -27.407660 963.045410
7.960000 4.040000 1.840000 22.610804 -68.522392 5206.566895
7.960000 4.040000 1.880000 80.310822 -97.397415 15936.084961
7.960000 4.040000 1.920000 161.133499 -66.885071 30437.617188
7.960000 4.040000 1.960000 203.365173 27.988916 42140.773438
7.960000 4.040000 2.000000 163.054474 134.878723 44779.031250
7.960000 4.040000 2.040000 57.432659 183.281204 36890.511719
7.960000 4.040000 2.080000 -45.233856 144.383179 22892.603516
7.960000 4.040000 2.120000 -82.306458 55.216763 9823.244141
7.960000 4.040000 2.160000 -47.282661 -15.748930 2483.678955
7.960000 4.040000 2.200000 12.173037 -27.834929 922.966064
7.960000 4.080000 1.800000 28.655270 -13.474584 1002.688843
7.960000 4.080000 1.840000 50.411873 -35.265663 3785.023926
7.960000 4.080000 1.880000 99.316620 -29.200035 10716.432617
7.960000 4.080000 1.920000 139.280243 25.336212 20040.910156
7.960000 4.080000 1.960000 126.979164 107.186035 27612.554688
7.960000 4.080000 2.000000 53.334389 163.213165 29483.093750
7.960000 4.080000 2.040000 -41.636463 151.474274 24678.050781
7.960000 4.080000 2.080000 -98.414520 78.802734 15895.289062
7.960000 4.080000 2.120000 -86.671318 -3.566334 7524.636230
7.960000 4.080000 2.160000 -28.211445 -43.090408 2652.668945
7.960000 4.080000 2.200000 26.163153 -27.456398 1438.364380
7.960000 4.120000 1.800000 31.006573 8.528669 1034.145752
7.960000 4.120000 1.840000 46.027004 5.855244 2152.769043
7.960000 4.120000 1.880000 66.841042 24.713627 5078.487793
7.960000 4.120000 1.920000 68.565994 66.084984 9068.520508
7.960000 4.120000 1.960000 33.521347 106.031746 12366.412109
7.960000 4.120000 2.000000 -27.909809 111.888397 13297.970703
7.960000 4.120000 2.040000 -79.959854 71.026337 11438.318359
7.960000 4.120000 2.080000 -88.726585 5.270706 7900.187012
7.960000 4.120000 2.120000 -50.400101 -44.390606 4510.696289
7.960000 4.120000 2.160000 5.694849 -50.211323 2553.608398
7.960000 4.120000 2.200000 41.992527 -17.984360 2086.809570
7.960000 4.160000 1.800000 18.548717 26.717865 1057.899170
7.960000 4.160000 1.840000 17.587276 27.666807 1074.764526
7.960000 4.160000 1.880000 17.112091 34.530380 1485.170898
7.960000 4.160000 1.920000 8.337154 46.100655 2194.778320
7.960000 4.160000 1.960000 -13.189766 51.640198 2840.679932
7.960000 4.160000 2.000000 -39.331810 38.885132 3059.044922
7.960000 4.160000 2.040000 -52.302765 6.981682 2784.322998
7.960000 4.160000 2.080000 -38.747368 -28.460178 2311.340332
7.960000 4.160000 2.120000 -2.864124 -45.212593 2052.381836
7.960000 4.160000 2.160000 34.420773 -31.857828 2199.710693
7.960000 4.160000 2.200000 50.782658 2.669971 2586.007080
7.960000 4.200000 1.800000 -0.409644 31.587029 997.908142
7.960000 4.200000 1.840000 -9.671778 22.717152 609.612244
7.960000 4.200000 1.880000 -10.758568 11.589103 250.054077
7.960000 4.200000 1.920000 -6.087715 5.132103 63.398758
7.960000 4.200000 1.960000 -2.637318 4.214699 24.719130
7.960000 4.200000 2.000000 -3.651327 2.796776 21.154144
7.960000 4.200000 2.040000 -4.029694 -4.502708 36.512814
7.960000 4.200000 2.080000 4.485432 -14.352272 226.106812
7.960000 4.200000 2.120000 22.961451 -15.776085 776.113037
7.960000 4.200000 2.160000 40.897377 -0.637920 1673.002441
7.960000 4.200000 2.200000 43.689098 26.614853 2617.087646
8.000000 3.800000 1.800000 -49.524845 -12.519785 2609.455322
8.000000 3.800000 1.840000 -30.895000 -34.724350 2160.281494
8.000000 3.800000 1.880000 -2.901222 -36.988926 1376.597778
8.000000 3.800000 1.920000 16.206833 -19.998619 662.606201
8.000000 3.800000 1.960000 16.501289 1.616173 274.904541
8.000000 3.800000 2.000000 3.959167 12.453846 170.773285
8.000000 3.800000 2.040000 -6.712631 9.623160 137.664642
8.000000 3.800000 2.080000 -6.795563 3.290886 57.009602
8.000000 3.800000 2.120000 -1.012365 4.592220 22.113371
8.000000 3.800000 2.160000 -0.685402 13.749801 189.526794
8.000000 3.800000 2.200000 -10.474128 20.710741 538.642151
8.000000 3.840000 1.800000 -39.635902 -31.283850 2549.684082
8.000000 3.840000 1.840000 -25.965881 -34.826565 1887.116699
8.000000 3.840000 1.880000 -19.064903 -32.434063 1415.438965
8.000000 3.840000 1.920000 -17.352251 -33.398624 1416.568726
8.000000 3.840000 1.960000 -12.124626 -39.557522 1711.804077
8.000000 3.840000 2.000000 1.818962 -43.007435 1852.947998
8.000000 3.840000 2.040000 18.964680 -34.479637 1548.504395
8.000000 3.840000 2.080000 27.003674 -13.998344 925.151978
8.000000 3.840000 2.120000 18.467867 7.116978 391.713470
8.000000 3.840000 2.160000 -1.362697 15.580828 244.619141
8.000000 3.840000 2.200000 -18.449650 8.070561 405.523560
8.000000 3.880000 1.800000 -23.952042 -41.901833 2329.463867
8.000000 3.880000 1.840000 -28.735321 -40.846889 2494.187012
8.000000 3.880000 1.880000 -36.657326 -57.234390 4619.535156
8.000000 3.880000 1.920000 -25.146301 -86.912064 8186.043457
8.000000 3.880000 1.960000 14.044739 -105.014511 11225.302734
8.000000 3.880000 2.000000 62.163166 -88.830002 11755.028320
8.000000 3.880000 2.040000 87.349747 -41.275253 9333.625000
8.000000 3.880000 2.080000 72.775948 8.855560 5374.759277
8.000000 3.880000 2.120000 31.885124 31.062330 1981.529541
8.000000 3.880000 2.160000 -4.002416 18.803810 369.602600
8.000000 3.880000 2.200000 -13.472450 -7.467090 237.264343
8.000000 3.920000 1.800000 -6.836962 -45.319740 2100.623047
8.000000 3.920000 1.840000 -24.953428 -58.799995 4080.113037
8.000000 3.920000 1.880000 -22.453735 -101.106979 10726.791016
8.000000 3.920000 1.920000 25.184490 -139.852371 20192.943359
8.000000 3.920000 1.960000 101.132195 -132.062317 27668.175781
8.000000 3.920000 2.000000 155.719177 -66.860764 28718.824219
8.000000 3.920000 2.040000 149.245758 19.311714 22647.238281
8.000000 3.920000 2.080000 88.241592 72.023445 12973.955078
8.000000 3.920000 2.120000 19.601795 65.477692 4671.558594
8.000000 3.920000 2.160000 -11.566513 21.878912 612.471008
8.000000 3.920000 2.200000 0.622832 -13.535968 183.610352
8.000000 3.960000 1.800000 10.752235 -42.359169 1909.909790
8.000000 3.960000 1.840000 -1.515600 -76.006020 5779.211914
8.000000 3.960000 1.880000 32.285580 -125.468697 16784.751953
8.000000 3.960000 1.920000 114.149124 -137.217133 31858.562500
8.000000 3.960000 1.960000 194.132721 -76.857086 43594.523438
8.000000 3.960000 2.000000 210.388306 31.656380 45265.363281
8.000000 3.960000 2.040000 145.829254 120.696548 35833.828125
8.000000 3.960000 2.080000 45.771935 136.389618 20697.197266
8.000000 3.960000 2.120000 -21.761553 84.096161 7545.729492
8.000000 3.960000 2.160000 -24.706034 18.794899 963.636353
8.000000 3.960000 2.200000 11.408144 -8.138685 196.383942
8.000000 4.000000 1.800000 27.226551 -31.155144 1711.928101
8.000000 4.000000 1.840000 35.675529 -71.701920 6413.908203
8.000000 4.000000 1.880000 96.575623 -99.295151 19186.378906
8.000000 4.000000 1.920000 180.252518 -63.528637 36526.859375
8.000000 4.000000 1.960000 220.569611 38.322342 50119.554688
8.000000 4.000000 2.000000 174.103775 148.452515 52350.273438
8.000000 4.000000 2.040000 63.762386 194.493790 41893.476562
8.000000 4.000000 2.080000 -37.826530 152.428406 24665.263672
8.000000 4.000000 2.120000 -70.805817 65.821548 9345.939453
8.000000 4.000000 2.160000 -36.623924 3.587307 1354.180542
8.000000 4.000000 2.200000 12.313159 -1.238043 153.146637
8.000000 4.040000 1.800000 36.848671 -10.846128 1475.463013
8.000000 4.040000 1.840000 62.883270 -39.124428 5485.026367
8.000000 4.040000 1.880000 124.432320 -31.602890 16482.144531
8.000000 4.040000 1.920000 173.536591 37.530422 31523.482422
8.000000 4.040000 1.960000 155.975555 138.662552 43555.675781
8.000000 4.040000 2.000000 64.571014 204.536011 46004.398438
8.000000 4.040000 2.040000 -47.587845 187.692642 37493.128906
8.000000 4.040000 2.080000 -110.159851 103.243668 22794.447266
8.000000 4.040000 2.120000 -94.963570 15.048237 9244.528320
8.000000 4.040000 2.160000 -35.474636 -21.090429 1703.256104
8.000000 4.040000 2.200000 9.938313 -2.119732 103.263321
8.000000 4.080000 1.800000 32.821609 13.086349 1248.510620
8.000000 4.080000 1.840000 59.606651 4.387640 3572.204346
8.000000 4.080000 1.880000 96.574265 33.561321 10452.951172
8.000000 4.080000 1.920000 100.901215 99.578415 20096.914062
8.000000 4.080000 1.960000 46.883873 160.899338 28086.695312
8.000000 4.080000 2.000000 -44.081413 168.093872 30198.722656
8.000000 4.080000 2.040000 -116.229462 108.757278 25337.433594
8.000000 4.080000 2.080000 -125.637527 21.055431 16228.119141
8.000000 4.080000 2.120000 -76.771858 -38.311817 7361.713867
8.000000 4.080000 2.160000 -15.097960 -41.461292 1946.987061
8.000000 4.080000 2.200000 15.316738 -7.515524 291.085571
8.000000 4.120000 1.800000 14.762411 29.671667 1098.336670
8.000000 4.120000 1.840000 28.460701 31.167471 1781.422729
8.000000 4.120000 1.880000 37.611778 55.816074 4530.080078
8.000000 4.120000 1.920000 18.543030 91.077614 8638.975586
8.000000 4.120000 1.960000 -31.397488 106.184006 12260.845703
8.000000 4.120000 2.000000 -85.621643 78.996994 13571.590820
8.000000 4.120000 2.040000 -107.845993 18.519142 11973.716797
8.000000 4.120000 2.080000 -82.781303 -39.572891 8418.757812
8.000000 4.120000 2.120000 -29.318377 -61.545830 4647.456543
8.000000 4.120000 2.160000 16.008820 -42.092361 2028.049194
8.000000 4.120000 2.200000 29.191067 -4.911811 876.244263
8.000000 4.160000 1.800000 -8.052845 30.706594 1007.743286
8.000000 4.160000 1.840000 -6.700081 27.775826 816.387573
8.000000 4.160000 1.880000 -7.944534 32.639900 1128.478638
8.000000 4.160000 1.920000 -19.837650 38.214333 1853.867554
8.000000 4.160000 1.960000 -40.064198 32.067562 2633.468262
8.000000 4.160000 2.000000 -54.948814 8.346657 3089.039062
8.000000 4.160000 2.040000 -49.799156 -24.259602 3068.484375
8.000000 4.160000 2.080000 -22.171307 -46.996712 2700.257812
8.000000 4.160000 2.120000 14.112766 -45.228401 2244.778320
8.000000 4.160000 2.160000 38.520100 -20.160032 1890.224976
8.000000 4.160000 2.200000 38.894440 12.133101 1659.989624
8.000000 4.200000 1.800000 -22.933105 18.569489 870.753174
8.000000 4.200000 1.840000 -22.860929 5.731603 555.473328
8.000000 4.200000 1.880000 -15.920250 -3.697952 267.129211
8.000000 4.200000 1.920000 -7.194033 -6.230034 90.567429
8.000000 4.200000 1.960000 -2.419611 -4.449734 25.654648
8.000000 4.200000 2.000000 -1.833975 -4.688210 25.342773
8.000000 4.200000 2.040000 0.733978 -9.792446 96.430725
8.000000 4.200000 2.080000 11.240788 -14.452520 335.230652
8.000000 4.200000 2.120000 27.342850 -9.164602 831.621338
8.000000 4.200000 2.160000 37.787758 9.816175 1524.271973
8.000000 4.200000 2.200000 31.424206 34.311367 2164.750488
8.040000 3.800000 1.800000 -43.276024 -23.287449 2415.119629
8.040000 3.800000 1.840000 -22.474958 -39.255505 2046.118408
8.040000 3.800000 1.880000 3.484066 -37.059593 1385.552124
8.040000 3.800000 1.920000 19.626959 -18.913151 742.924805
8.040000 3.800000 1.960000 18.574364 2.102280 349.426575
8.040000 3.800000 2.000000 6.193558 13.080318 209.454880
8.040000 3.800000 2.040000 -4.853580 11.978901 167.051300
8.040000 3.800000 2.080000 -7.467661 7.525131 112.393562
8.040000 3.800000 2.120000 -5.896014 8.668032 109.897758
8.040000 3.800000 2.160000 -9.344374 14.839893 307.539734
8.040000 3.800000 2.200000 -20.705229 17.177505 723.773193
8.040000 3.840000 1.800000 -31.902575 -43.488895 2909.058350
8.040000 3.840000 1.840000 -17.394890 -49.246861 2727.835449
8.040000 3.840000 1.880000 -3.549963 -49.712791 2483.963867
8.040000 3.840000 1.920000 9.400757 -46.280365 2230.246338
8.040000 3.840000 1.960000 21.254749 -38.318199 1920.048828
8.040000 3.840000 2.000000 29.585381 -24.867962 1493.710205
8.040000 3.840000 2.040000 30.337727 -7.618484 978.418945
8.040000 3.840000 2.080000 21.164955 8.035820 512.529724
8.040000 3.840000 2.120000 4.551130 15.526037 261.770630
8.040000 3.840000 2.160000 -12.441936 11.652134 290.574036
8.040000 3.840000 2.200000 -22.341831 -0.619572 499.541290
8.040000 3.880000 1.800000 -10.194084 -55.739136 3210.770752
8.040000 3.880000 1.840000 -6.105143 -62.787361 3979.525391
8.040000 3.880000 1.880000 6.742905 -77.012543 5976.398438
8.040000 3.880000 1.920000 36.243488 -84.429245 8441.887695
8.040000 3.880000 1.960000 72.239906 -68.410736 9898.632812
8.040000 3.880000 2.000000 92.055862 -28.092667 9263.480469
8.040000 3.880000 2.040000 80.180496 16.843929 6712.629883
8.040000 3.880000 2.080000 43.182281 41.013878 3546.847656
8.040000 3.880000 2.120000 5.063313 34.204872 1195.610352
8.040000 3.880000 2.160000 -12.735406 8.726082 238.335068
8.040000 3.880000 2.200000 -7.830935 -13.144863 234.110977
8.040000 3.920000 1.800000 16.421099 -54.642269 3255.430176
8.040000 3.920000 1.840000 18.150862 -71.976593 5510.083496
8.040000 3.920000 1.880000 46.567825 -94.831390 11161.554688
8.040000 3.920000 1.920000 100.150810 -90.919609 18296.558594
8.040000 3.920000 1.960000 145.951538 -42.328121 23093.521484
8.040000 3.920000 2.000000 146.815308 31.557758 22550.626953
8.040000 3.920000 2.040000 96.636314 86.403816 16804.197266
8.040000 3.920000 2.080000 28.312061 90.572113 9004.880859
8.040000 3.920000 2.120000 -14.358597 51.945534 2904.507568
8.040000 3.920000 2.160000 -13.861492 8.239521 260.030670
8.040000 3.920000 2.200000 10.238875 -8.626673 179.254059
8.040000 3.960000 1.800000 39.427528 -38.274849 3019.494141
8.040000 3.960000 1.840000 50.600311 -63.009148 6530.543945
8.040000 3.960000 1.880000 98.955490 -75.747330 15529.847656
8.040000 3.960000 1.920000 160.011963 -39.552483 27168.226562
8.040000 3.960000 1.960000 183.062393 44.024471 35449.992188
8.040000 3.960000 2.000000 138.291290 127.639572 35416.339844
8.040000 3.960000 2.040000 48.471329 156.740326 26917.000000
8.040000 3.960000 2.080000 -28.129591 117.978195 14710.127930
8.040000 3.960000 2.120000 -48.363647 49.963570 4835.400879
8.040000 3.960000 2.160000 -19.243858 6.124350 407.833740
8.040000 3.960000 2.200000 15.353100 7.085936 285.928162
8.040000 4.000000 1.800000 49.397392 -10.562219 2551.662842
8.040000 4.000000 1.840000 73.308044 -30.826221 6324.325195
8.040000 4.000000 1.880000 127.070435 -18.400047 16485.457031
8.040000 4.000000 1.920000 166.242416 48.438934 29982.871094
8.040000 4.000000 1.960000 143.083206 139.859894 40033.593750
8.040000 4.000000 2.000000 55.523373 194.136459 40771.808594
8.040000 4.000000 2.040000 -44.488708 172.230148 31642.470703
8.040000 4.000000 2.080000 -94.566971 94.071365 17792.333984
8.040000 4.000000 2.120000 -75.865067 20.070793 6158.345215
8.040000 4.000000 2.160000 -25.087368 -3.835396 644.086304
8.040000 4.000000 2.200000 5.262089 16.576107 302.456909
8.040000 4.040000 1.800000 40.737408 18.056614 1985.577637
8.040000 4.040000 1.840000 68.859634 11.208859 4867.288086
8.040000 4.040000 1.880000 106.444061 45.283768 13380.957031
8.040000 4.040000 1.920000 106.713989 117.046082 25087.660156
8.040000 4.040000 1.960000 44.720039 179.528595 34230.398438
8.040000 4.040000 2.000000 -52.041466 181.391754 35611.281250
8.040000 4.040000 2.040000 -122.777588 115.404480 28392.531250
8.040000 4.040000 2.080000 -126.105698 27.321522 16649.113281
8.040000 4.040000 2.120000 -75.241241 -24.757177 6274.162598
8.040000 4.040000 2.160000 -21.672083 -20.721239 899.048950
8.040000 4.040000 2.200000 -5.379473 10.194689 132.870407
8.040000 4.080000 1.800000 16.730663 34.714485 1485.010498
8.040000 4.080000 1.840000 37.293793 38.883129 2902.724609
8.040000 4.080000 1.880000 48.976643 75.112999 8040.673828
8.040000 4.080000 1.920000 20.403278 122.763916 15487.273438
8.040000 4.080000 1.960000 -47.250435 139.380219 21659.449219
8.040000 4.080000 2.000000 -114.605820 100.191422 23172.816406
8.040000 4.080000 2.040000 -136.491394 24.211090 19216.078125
8.040000 4.080000 2.080000 -102.022675 -40.286011 12031.588867
8.040000 4.080000 2.120000 -43.112694 -57.638618 5180.915039
8.040000 4.080000 2.160000 -3.787785 -33.343552 1126.139771
8.040000 4.080000 2.200000 -1.456383 -2.884681 10.442434
8.040000 4.120000 1.800000 -10.300434 32.155937 1140.103271
8.040000 4.120000 1.840000 -1.312792 36.938347 1366.164917
8.040000 4.120000 1.880000 -6.037098 57.055092 3291.729980
8.040000 4.120000 1.920000 -35.880291 71.448196 6392.240234
8.040000 4.120000 1.960000 -77.290260 56.841629 9204.754883
8.040000 4.120000 2.000000 -100.734894 11.461979 10278.895508
8.040000 4.120000 2.040000 -86.591515 -40.214653 9115.308594
8.040000 4.120000 2.080000 -43.135544 -67.377914 6400.458496
8.040000 4.120000 2.120000 0.770580 -58.622231 3437.159668
8.040000 4.120000 2.160000 20.719778 -29.240425 1284.311646
8.040000 4.120000 2.200000 15.196266 -4.659410 252.636597
8.040000 4.160000 1.800000 -26.269157 14.749840 907.626343
8.040000 4.160000 1.840000 -22.996498 12.276544 679.552429
8.040000 4.160000 1.880000 -25.881662 13.693443 857.370850
8.040000 4.160000 1.920000 -35.600758 9.692173 1361.352173
8.040000 4.160000 1.960000 -43.696930 -5.525810 1939.956177
8.040000 4.160000 2.000000 -39.596268 -27.696766 2334.975098
8.040000 4.160000 2.040000 -20.136379 -44.800522 2412.560547
8.040000 4.160000 2.080000 6.955585 -46.276600 2189.903809
8.040000 4.160000 2.120000 28.505367 -31.057364 1777.115723
8.040000 4.160000 2.160000 35.204174 -7.889704 1301.581299
8.040000 4.160000 2.200000 27.038570 11.412883 861.338196
8.040000 4.200000 1.800000 -25.562103 -4.004137 669.454285
8.040000 4.200000 1.840000 -19.937197 -12.896320 563.806885
8.040000 4.200000 1.880000 -10.488825 -18.661961 458.284210
8.040000 4.200000 1.920000 0.233111 -18.913563 357.777222
8.040000 4.200000 1.960000 8.082762 -14.452030 274.192200
8.040000 4.200000 2.000000 11.492226 -9.455711 221.481720
8.040000 4.200000 2.040000 13.605164 -7.129291 235.927261
8.040000 4.200000 2.080000 18.756027 -5.392850 380.871368
8.040000 4.200000 2.120000 26.292421 1.573425 693.767090
8.040000 4.200000 2.160000 29.041412 16.225965 1106.685547
8.040000 4.200000 2.200000 19.674660 32.371201 1434.986816
8.080000 3.800000 1.800000 -34.949020 -27.893745 1999.495117
8.080000 3.800000 1.840000 -14.698719 -40.010075 1816.858398
8.080000 3.800000 1.880000 10.353336 -35.302422 1353.452515
8.080000 3.800000 1.920000 25.435188 -14.610493 860.415283
8.080000 3.800000 1.960000 21.922501 9.102907 563.458984
8.080000 3.800000 2.000000 5.175446 21.353298 482.748596
8.080000 3.800000 2.040000 -10.748142 18.601368 461.533447
8.080000 3.800000 2.080000 -16.526676 9.864086 370.431213
8.080000 3.800000 2.120000 -15.320593 5.976330 270.437073
8.080000 3.800000 2.160000 -17.068867 8.066213 356.410004
8.080000 3.800000 2.200000 -26.005600 7.499546 732.534424
8.080000 3.840000 1.800000 -19.551003 -49.511818 2833.661865
8.080000 3.840000 1.840000 -0.274807 -55.510609 3081.503174
8.080000 3.840000 1.880000 21.424330 -50.074207 2966.428223
8.080000 3.840000 1.920000 37.086861 -32.805958 2451.666016
8.080000 3.840000 1.960000 39.972656 -10.176434 1701.373047
8.080000 3.840000 2.000000 30.136705 8.405308 978.870239
8.080000 3.840000 2.040000 13.907282 16.977036 481.632202
8.080000 3.840000 2.080000 -1.440575 15.898031 254.822647
8.080000 3.840000 2.120000 -12.330901 9.143111 235.647598
8.080000 3.840000 2.160000 -18.767094 -0.141602 352.223846
8.080000 3.840000 2.200000 -21.087912 -10.983753 565.342834
8.080000 3.880000 1.800000 9.911839 -58.291199 3496.108398
8.080000 3.880000 1.840000 26.347466 -62.026405 4541.463867
8.080000 3.880000 1.880000 49.600662 -58.052193 5830.282715
8.080000 3.880000 1.920000 72.388672 -38.374924 6712.754395
8.080000 3.880000 1.960000 80.812172 -4.590286 6551.677734
8.080000 3.880000 2.000000 66.101570 29.313145 5228.677734
8.080000 3.880000 2.040000 33.879227 46.144741 3277.139160
8.080000 3.880000 2.080000 1.360703 38.898766 1514.965576
8.080000 3.880000 2.120000 -15.487614 15.980303 495.236267
8.080000 3.880000 2.160000 -13.326808 -6.413500 218.736786
8.080000 3.880000 2.200000 -1.422813 -17.325712 302.204681
8.080000 3.920000 1.800000 41.306534 -45.571442 3782.986084
8.080000 3.920000 1.840000 57.091301 -49.390236 5698.812500
8.080000 3.920000 1.880000 85.892685 -41.812553 9125.842773
8.080000 3.920000 1.920000 112.268013 -8.786861 12681.315430
8.080000 3.920000 1.960000 111.665009 42.711575 14293.352539
8.080000 3.920000 2.000000 74.502228 84.849373 12749.998047
8.080000 3.920000 2.040000 19.013752 91.283447 8694.190430
8.080000 3.920000 2.080000 -21.768143 60.795284 4169.918945
8.080000 3.920000 2.120000 -27.600910 18.714848 1112.055786
8.080000 3.920000 2.160000 -6.753640 -5.711319 78.230820
8.080000 3.920000 2.200000 14.762219 -4.009540 233.999542
8.080000 3.960000 1.800000 58.389610 -14.211149 3611.303467
8.080000 3.960000 1.840000 75.775864 -16.473637 6013.362305
8.080000 3.960000 1.880000 106.197968 2.166976 11282.704102
8.080000 3.960000 1.920000 121.831421 51.856430 17531.984375
8.080000 3.960000 1.960000 95.385635 110.451416 21297.935547
8.080000 3.960000 2.000000 30.619284 138.323975 20071.062500
8.080000 3.960000 2.040000 -35.164085 114.305168 14302.184570
8.080000 3.960000 2.080000 -62.093231 57.018650 7106.695801
8.080000 3.960000 2.120000 -42.671993 8.935595 1900.743896
8.080000 3.960000 2.160000 -6.117124 -1.772190 40.559860
8.080000 3.960000 2.200000 11.696290 16.011978 393.186646
8.080000 4.000000 1.800000 51.144249 21.178495 3064.262695
8.080000 4.000000 1.840000 68.696983 23.481403 5270.651855
8.080000 4.000000 1.880000 90.199722 53.905441 11041.786133
8.080000 4.000000 1.920000 81.910233 108.490173 18479.404297
8.080000 4.000000 1.960000 27.869995 150.942947 23560.509766
8.080000 4.000000 2.000000 -47.524017 144.140320 23034.964844
8.080000 4.000000 2.040000 -96.748535 87.286133 16979.148438
8.080000 4.000000 2.080000 -91.536896 19.860439 8773.440430
8.080000 4.000000 2.120000 -48.251030 -13.567802 2512.247070
8.080000 4.000000 2.160000 -10.441235 -2.997244 118.002853
8.080000 4.000000 2.200000 -6.567536 22.255482 538.438965
8.080000 4.040000 1.800000 23.278843 42.454403 2344.280762
8.080000 4.040000 1.840000 36.793243 49.281849 3782.443359
8.080000 4.040000 1.880000 41.570908 82.034698 8457.832031
8.080000 4.040000 1.920000 10.826796 121.715363 14931.849609
8.080000 4.040000 1.960000 -51.880596 130.645035 19759.720703
8.080000 4.040000 2.000000 -109.081787 89.680313 19941.394531
8.080000 4.040000 2.040000 -121.641823 20.641108 15222.789062
8.080000 4.040000 2.080000 -85.534164 -31.047661 8280.050781
8.080000 4.040000 2.120000 -35.368591 -37.472794 2655.147461
8.080000 4.040000 2.160000 -10.741806 -11.856588 255.965088
8.080000 4.040000 2.200000 -19.750782 8.548498 463.170197
8.080000 4.080000 1.800000 -9.163891 39.739120 1663.174683
8.080000 4.080000 1.840000 -2.251917 46.993759 2213.484375
8.080000 4.080000 1.880000 -11.276760 69.199890 4915.790527
8.080000 4.080000 1.920000 -47.176582 82.157181 8975.431641
8.080000 4.080000 1.960000 -92.090576 61.479797 12260.439453
8.080000 4.080000 2.000000 -112.712883 9.620640 12796.750977
8.080000 4.080000 2.040000 -91.720627 -42.528343 10221.333984
8.080000 4.080000 2.080000 -45.233265 -62.875179 5999.336426
8.080000 4.080000 2.120000 -7.839506 -47.114544 2281.238037
8.080000 4.080000 2.160000 -0.302266 -20.252476 410.254150
8.080000 4.080000 2.200000 -12.726597 -9.980587 261.578369
8.080000 4.120000 1.800000 -28.271624 18.249035 1132.312012
8.080000 4.120000 1.840000 -26.112152 21.323769 1136.547607
8.080000 4.120000 1.880000 -36.969429 27.244761 2109.015625
8.080000 4.120000 1.920000 -58.068832 19.484108 3751.619629
8.080000 4.120000 1.960000 -71.700813 -8.118965 5206.924316
8.080000 4.120000 2.000000 -61.929779 -42.554451 5646.178711
8.080000 4.120000 2.040000 -30.933809 -62.223564 4828.672363
8.080000 4.120000 2.080000 2.107895 -56.654514 3214.177002
8.080000 4.120000 2.120000 18.526318 -35.339867 1592.130615
8.080000 4.120000 2.160000 16.171103 -17.288845 560.408691
8.080000 4.120000 2.200000 8.279272 -12.745176 230.985870
8.080000 4.160000 1.800000 -26.585972 -5.596910 738.139282
8.080000 4.160000 1.840000 -24.780106 -7.934595 677.011475
8.080000 4.160000 1.880000 -26.250004 -12.853355 854.271423
8.080000 4.160000 1.920000 -25.219248 -23.152122 1172.031250
8.080000 4.160000 1.960000 -16.204588 -34.487926 1452.005859
8.080000 4.160000 2.000000 -0.196102 -39.383110 1551.067749
8.080000 4.160000 2.040000 15.931686 -34.357700 1434.270142
8.080000 4.160000 2.080000 25.641716 -22.692787 1172.460205
8.080000 4.160000 2.120000 27.780724 -10.611352 884.369385
8.080000 4.160000 2.160000 25.629822 -1.685577 659.728943
8.080000 4.160000 2.200000 22.222317 4.561488 514.638550
8.080000 4.200000 1.800000 -11.785828 -16.593763 414.258728
8.080000 4.200000 1.840000 -7.379915 -22.170258 545.983459
8.080000 4.200000 1.880000 2.871199 -27.252878 750.963135
8.080000 4.200000 1.920000 17.330269 -24.938335 922.258789
8.080000 4.200000 1.960000 27.892340 -13.275013 954.208557
8.080000 4.200000 2.000000 28.315636 1.092330 802.968384
8.080000 4.200000 2.040000 21.347523 9.249823 541.275940
8.080000 4.200000 2.080000 15.922238 9.534386 344.422180
8.080000 4.200000 2.120000 17.037560 9.099369 373.076965
8.080000 4.200000 2.160000 19.867687 15.172183 624.920166
8.080000 4.200000 2.200000 15.375645 25.722544 898.059692
8.120000 3.800000 1.800000 -29.108463 -28.638000 1667.437744
8.120000 3.800000 1.840000 -8.910519 -38.836052 1587.636230
8.120000 3.800000 1.880000 16.082735 -30.509773 1189.500610
8.120000 3.800000 1.920000 27.986378 -5.163902 809.903259
8.120000 3.800000 1.960000 17.500156 20.431644 723.707520
8.120000 3.800000 2.000000 -6.546505 28.903576 878.273438
8.120000 3.800000 2.040000 -25.408688 18.147976 974.950439
8.120000 3.800000 2.080000 -28.272425 1.896010 802.924866
8.120000 3.800000 2.120000 -21.173679 -5.388525 477.360901
8.120000 3.800000 2.160000 -18.056499 -3.026356 335.195984
8.120000 3.800000 2.200000 -24.314898 -2.780835 598.947266
8.120000 3.840000 1.800000 -7.623837 -48.681236 2427.985596
8.120000 3.840000 1.840000 16.241840 -49.775536 2741.401367
8.120000 3.840000 1.880000 38.104103 -32.876160 2532.764648
8.120000 3.840000 1.920000 43.536602 -4.211531 1913.172607
8.120000 3.840000 1.960000 28.577919 20.036062 1218.141235
8.120000 3.840000 2.000000 3.653367 26.921837 738.132385
8.120000 3.840000 2.040000 -15.651704 16.957914 532.546692
8.120000 3.840000 2.080000 -21.700808 1.508679 473.201172
8.120000 3.840000 2.120000 -18.862240 -9.134336 439.220184
8.120000 3.840000 2.160000 -15.591086 -14.284235 447.121338
8.120000 3.840000 2.200000 -14.224890 -19.862995 596.886047
8.120000 3.880000 1.800000 26.580620 -48.480892 3056.926270
8.120000 3.880000 1.840000 47.373009 -39.883656 3834.907715
8.120000 3.880000 1.880000 62.409069 -17.626680 4205.591797
8.120000 3.880000 1.920000 61.469849 12.127144 3925.609863
8.120000 3.880000 1.960000 41.969604 35.984318 3056.318848
8.120000 3.880000 2.000000 12.685404 42.278248 1948.369629
8.120000 3.880000 2.040000 -11.707129 29.681385 1018.041504
8.120000 3.880000 2.080000 -20.926067 7.766503 498.218872
8.120000 3.880000 2.120000 -15.316647 -10.835806 352.014343
8.120000 3.880000 2.160000 -3.169511 -19.451099 388.391083
8.120000 3.880000 2.200000 7.444064 -19.883387 450.763153
8.120000 3.920000 1.800000 53.799820 -22.617678 3405.979980
8.120000 3.920000 1.840000 66.404419 -8.482014 4481.491211
8.120000 3.920000 1.880000 73.473907 15.370541 5634.668457
8.120000 3.920000 1.920000 65.344299 45.026814 6297.291504
8.120000 3.920000 1.960000 38.015560 67.010178 5935.546875
8.120000 3.920000 2.000000 1.051043 67.171844 4513.161133
8.120000 3.920000 2.040000 -26.444815 43.690758 2608.210449
8.120000 3.920000 2.080000 -30.258654 11.003976 1036.673584
8.120000 3.920000 2.120000 -12.904536 -10.806755 283.313019
8.120000 3.920000 2.160000 8.924831 -12.154779 227.391281
8.120000 3.920000 2.200000 19.356894 -0.456460 374.897675
8.120000 3.960000 1.800000 55.949581 16.471790 3401.675537
8.120000 3.960000 1.840000 59.495571 30.114887 4446.629395
8.120000 3.960000 1.880000 58.762413 52.297859 6188.087402
8.120000 3.960000 1.920000 41.673122 78.590363 7913.094727
8.120000 3.960000 1.960000 5.267725 91.790146 8453.179688
8.120000 3.960000 2.000000 -34.860130 77.005997 7145.151855
8.120000 3.960000 2.040000 -54.468414 38.898674 4479.915039
8.120000 3.960000 2.080000 -42.425743 1.548851 1802.342651
8.120000 3.960000 2.120000 -12.250488 -11.607571 284.810181
8.120000 3.960000 2.160000 9.701214 1.290518 95.778984
8.120000 3.960000 2.200000 8.640718 20.099449 478.649872
8.120000 4.000000 1.800000 30.662222 46.051212 3060.885986
8.120000 4.000000 1.840000 28.098972 54.728271 3784.735840
8.120000 4.000000 1.880000 20.579451 71.923401 5596.489258
8.120000 4.000000 1.920000 -4.336292 88.534683 7857.193359
8.120000 4.000000 1.960000 -43.151573 85.052513 9095.988281
8.120000 4.000000 2.000000 -73.413406 52.991314 8197.607422
8.120000 4.000000 2.040000 -73.151352 8.486176 5423.135254
8.120000 4.000000 2.080000 -43.702034 -19.264042 2280.971191
8.120000 4.000000 2.120000 -10.765386 -15.017670 341.423920
8.120000 4.000000 2.160000 -0.512655 7.805460 61.188026
8.120000 4.000000 2.200000 -14.599192 20.968655 652.820862
8.120000 4.040000 1.800000 -6.104763 49.370392 2474.703613
8.120000 4.040000 1.840000 -10.501079 51.868439 2800.607666
8.120000 4.040000 1.880000 -21.924061 60.759930 4172.433594
8.120000 4.040000 1.920000 -47.489334 62.489510 6160.175781
8.120000 4.040000 1.960000 -75.513321 42.146828 7478.616699
8.120000 4.040000 2.000000 -83.722191 3.231350 7019.846680
8.120000 4.040000 2.040000 -62.333611 -30.816147 4835.113770
8.120000 4.040000 2.080000 -26.889391 -37.756283 2148.576172
8.120000 4.040000 2.120000 -5.083875 -18.975658 385.921417
8.120000 4.040000 2.160000 -9.813845 1.338979 98.104408
8.120000 4.040000 2.200000 -26.720350 0.739491 714.523987
8.120000 4.080000 1.800000 -31.622025 27.830845 1774.508301
8.120000 4.080000 1.840000 -34.734261 25.572590 1860.426270
8.120000 4.080000 1.880000 -44.827320 24.742966 2621.703125
8.120000 4.080000 1.920000 -60.410393 13.413361 3829.333740
8.120000 4.080000 1.960000 -67.361710 -12.389587 4691.102051
8.120000 4.080000 2.000000 -53.646988 -40.122028 4487.776367
8.120000 4.080000 2.040000 -24.452454 -50.931240 3191.913574
8.120000 4.080000 2.080000 0.185633 -38.941757 1516.494873
8.120000 4.080000 2.120000 4.477575 -18.527519 363.317657
8.120000 4.080000 2.160000 -7.121345 -10.410681 159.095825
8.120000 4.080000 2.200000 -14.653134 -20.472752 633.847900
8.120000 4.120000 1.800000 -33.081158 -0.850813 1095.086914
8.120000 4.120000 1.840000 -33.923038 -5.736551 1183.680664
8.120000 4.120000 1.880000 -37.055401 -13.795446 1563.417114
8.120000 4.120000 1.920000 -35.986683 -28.196299 2090.072754
8.120000 4.120000 1.960000 -23.814503 -42.941044 2411.063721
8.120000 4.120000 2.000000 -2.848383 -47.241634 2239.885254
8.120000 4.120000 2.040000 15.136063 -36.948940 1594.324585
8.120000 4.120000 2.080000 19.711548 -20.349918 802.664307
8.120000 4.120000 2.120000 12.527156 -10.937415 276.556702
8.120000 4.120000 2.160000 6.017290 -14.024340 232.889877
8.120000 4.120000 2.200000 10.672335 -21.317425 568.331299
8.120000 4.160000 1.800000 -16.046314 -16.912052 543.501709
8.120000 4.160000 1.840000 -15.017069 -23.287554 767.822510
8.120000 4.160000 1.880000 -8.487996 -32.710621 1142.030762
8.120000 4.160000 1.920000 6.315722 -38.062275 1488.625122
8.120000 4.160000 1.960000 23.547369 -32.198669 1591.232910
8.120000 4.160000 2.000000 32.798119 -16.442120 1346.059814
8.120000 4.160000 2.040000 29.199791 -0.933389 853.499023
8.120000 4.160000 2.080000 18.826868 4.564003 375.281067
8.120000 4.160000 2.120000 13.020515 0.156653 169.558365
8.120000 4.160000 2.160000 17.174732 -4.569099 315.848114
8.120000 4.160000 2.200000 25.655704 -0.573187 658.543701
8.120000 4.200000 1.800000 1.801203 -13.483095 185.038177
8.120000 4.200000 1.840000 4.598536 -21.485987 482.794159
8.120000 4.200000 1.880000 18.869532 -26.327440 1049.193359
8.120000 4.200000 1.920000 36.742466 -16.802404 1632.329590
8.120000 4.200000 1.960000 43.101860 5.298033 1885.839478
8.120000 4.200000 2.000000 31.463560 24.944380 1612.177734
8.120000 4.200000 2.040000 11.785032 28.406790 945.832642
8.120000 4.200000 2.080000 0.969672 17.316620 300.805603
8.120000 4.200000 2.120000 5.759813 6.809873 79.549820
8.120000 4.200000 2.160000 16.406902 9.511160 359.648590
8.120000 4.200000 2.200000 17.846130 22.617588 830.039673
8.160000 3.800000 1.800000 -26.148468 -29.563261 1557.728760
8.160000 3.800000 1.840000 -5.110590 -37.471703 1430.246704
8.160000 3.800000 1.880000 17.808754 -24.250910 905.258301
8.160000 3.800000 1.920000 22.562267 3.911215 524.353516
8.160000 3.800000 1.960000 3.505801 25.573200 666.279236
8.160000 3.800000 2.000000 -23.987244 24.187492 1160.422607
8.160000 3.800000 2.040000 -38.146851 3.900965 1470.399780
8.160000 3.800000 2.080000 -31.682842 -15.582893 1246.629028
8.160000 3.800000 2.120000 -17.144878 -19.530727 675.396179
8.160000 3.800000 2.160000 -11.676456 -12.150411 283.972107
8.160000 3.800000 2.200000 -18.144363 -9.605758 421.488525
8.160000 3.840000 1.800000 0.081403 -43.829578 1921.038574
8.160000 3.840000 1.840000 23.445930 -37.484222 1954.778564
8.160000 3.840000 1.880000 36.516064 -12.914679 1500.211792
8.160000 3.840000 1.920000 26.964180 14.972668 951.247803
8.160000 3.840000 1.960000 0.229507 26.722624 714.151306
8.160000 3.840000 2.000000 -24.636192 15.622860 851.015686
8.160000 3.840000 2.040000 -32.003571 -7.027565 1073.615234
8.160000 3.840000 2.080000 -22.546003 -23.667934 1068.493408
8.160000 3.840000 2.120000 -9.586973 -26.825050 811.493347
8.160000 3.840000 2.160000 -3.863324 -23.481731 566.317017
8.160000 3.840000 2.200000 -3.303047 -24.227074 597.861206
8.160000 3.880000 1.800000 32.486282 -33.057255 2148.140625
8.160000 3.880000 1.840000 46.099594 -14.290268 2329.384277
8.160000 3.880000 1.880000 43.558765 11.504143 2029.711426
8.160000 3.880000 1.920000 23.540768 29.726833 1437.852295
8.160000 3.880000 1.960000 -3.143452 29.588966 885.388245
8.160000 3.880000 2.000000 -21.315243 12.439916 609.091064
8.160000 3.880000 2.040000 -22.704967 -9.796041 611.477966
8.160000 3.880000 2.080000 -10.892368 -24.489540 718.381226
8.160000 3.880000 2.120000 3.779525 -27.329979 761.212524
8.160000 3.880000 2.160000 13.657981 -22.908503 711.339966
8.160000 3.880000 2.200000 18.623022 -17.730082 661.172729
8.160000 3.920000 1.800000 48.252815 0.478147 2328.562744
8.160000 3.920000 1.840000 45.579956 20.897793 2514.250244
8.160000 3.920000 1.880000 30.920383 37.068645 2330.154541
8.160000 3.920000 1.920000 8.956457 41.985283 1842.982178
8.160000 3.920000 1.960000 -11.765243 32.887035 1219.978027
8.160000 3.920000 2.000000 -22.316502 13.366673 676.694214
8.160000 3.920000 2.040000 -18.158178 -7.422544 384.813599
8.160000 3.920000 2.080000 -2.476923 -19.362307 381.034088
8.160000 3.920000 2.120000 15.198727 -17.670963 543.264221
8.160000 3.920000 2.160000 25.255421 -6.113544 675.211731
8.160000 3.920000 2.200000 24.702921 6.201224 648.689514
8.160000 3.960000 1.800000 34.488350 36.232220 2502.220215
8.160000 3.960000 1.840000 19.381607 46.521370 2539.884521
8.160000 3.960000 1.880000 2.094153 48.437126 2350.540771
8.160000 3.960000 1.920000 -14.292228 42.537849 2013.736450
8.160000 3.960000 1.960000 -26.488331 28.768330 1529.248413
8.160000 3.960000 2.000000 -29.125868 9.346060 935.664978
8.160000 3.960000 2.040000 -18.573812 -7.971415 408.529968
8.160000 3.960000 2.080000 0.834870 -13.126274 172.996078
8.160000 3.960000 2.120000 16.825687 -2.735164 290.584869
8.160000 3.960000 2.160000 18.479734 14.678129 556.948059
8.160000 3.960000 2.200000 6.627095 24.781874 658.059631
8.160000 4.000000 1.800000 -0.409663 50.742367 2574.955566
8.160000 4.000000 1.840000 -17.261482 46.397587 2450.694824
8.160000 4.000000 1.880000 -28.433941 37.006516 2177.971191
8.160000 4.000000 1.920000 -35.581905 25.477381 1915.168945
8.160000 4.000000 1.960000 -38.329136 10.795174 1585.658447
8.160000 4.000000 2.000000 -32.316120 -5.242282 1071.813232
8.160000 4.000000 2.040000 -16.187290 -14.458719 471.082916
8.160000 4.000000 2.080000 1.788795 -9.063618 85.348946
8.160000 4.000000 2.120000 8.169028 7.840644 128.208725
8.160000 4.000000 2.160000 -2.359373 21.574432 471.022797
8.160000 4.000000 2.200000 -19.334307 18.851143 729.181030
8.160000 4.040000 1.800000 -32.825424 36.118683 2382.067627
8.160000 4.040000 1.840000 -42.249340 21.676472 2254.876221
8.160000 4.040000 1.880000 -43.699997 7.566733 1966.945190
8.160000 4.040000 1.920000 -40.954048 -4.683458 1699.168823
8.160000 4.040000 1.960000 -33.885063 -15.989511 1403.861938
8.160000 4.040000 2.000000 -20.560337 -23.154406 958.854004
8.160000 4.040000 2.040000 -4.620088 -19.943142 419.074127
8.160000 4.040000 2.080000 3.637788 -5.955582 48.702454
8.160000 4.040000 2.120000 -3.174226 8.219982 77.643822
8.160000 4.040000 2.160000 -19.197691 8.717834 444.551971
8.160000 4.040000 2.200000 -27.766684 -6.990371 819.854004
8.160000 4.080000 1.800000 -42.588531 5.782551 1847.220825
8.160000 4.080000 1.840000 -42.613247 -10.572777 1927.672363
8.160000 4.080000 1.880000 -35.371250 -23.904095 1822.531128
8.160000 4.080000 1.920000 -23.509251 -32.541416 1611.628662
8.160000 4.080000 1.960000 -8.614894 -34.813454 1286.192993
8.160000 4.080000 2.000000 5.578692 -28.262114 829.868896
8.160000 4.080000 2.040000 12.001925 -14.051328 341.485992
8.160000 4.080000 2.080000 5.734832 -0.537131 33.176804
8.160000 4.080000 2.120000 -8.604521 1.286309 75.692375
8.160000 4.080000 2.160000 -17.456530 -11.517450 437.382080
8.160000 4.080000 2.200000 -9.581404 -28.162575 884.933899
8.160000 4.120000 1.800000 -28.238705 -17.294493 1096.523926
8.160000 4.120000 1.840000 -22.882519 -30.646271 1462.803589
8.160000 4.120000 1.880000 -9.503226 -40.467690 1727.945190
8.160000 4.120000 1.920000 9.012088 -41.197578 1778.458252
8.160000 4.120000 1.960000 25.186789 -29.974041 1532.817383
8.160000 4.120000 2.000000 30.157312 -10.913013 1028.557373
8.160000 4.120000 2.040000 20.678905 5.045942 453.078674
8.160000 4.120000 2.080000 3.947337 7.304930 68.943466
8.160000 4.120000 2.120000 -6.122540 -5.013359 62.619259
8.160000 4.120000 2.160000 0.074455 -20.569576 423.113037
8.160000 4.120000 2.200000 18.810097 -24.235472 941.177856
8.160000 4.160000 1.800000 -6.191141 -19.326771 411.854309
8.160000 4.160000 1.840000 0.291930 -30.356302 921.590271
8.160000 4.160000 1.880000 17.750507 -35.454529 1572.104004
8.160000 4.160000 1.920000 37.726200 -25.262192 2061.444336
8.160000 4.160000 1.960000 45.715633 -1.788726 2093.118652
8.160000 4.160000 2.000000 34.306000 20.435892 1594.527344
8.160000 4.160000 2.040000 11.705575 25.956718 810.771729
8.160000 4.160000 2.080000 -4.033428 12.613919 175.379501
8.160000 4.160000 2.120000 -0.760429 -5.739118 33.515720
8.160000 4.160000 2.160000 16.855892 -11.406460 414.228424
8.160000 4.160000 2.200000 31.919676 1.410335 1020.854736
8.160000 4.200000 1.800000 4.548586 -5.323928 49.033844
8.160000 4.200000 1.840000 11.942628 -16.923218 429.021667
8.160000 4.200000 1.880000 31.582354 -16.201710 1259.940430
8.160000 4.200000 1.920000 46.143341 4.023900 2145.399658
8.160000 4.200000 1.960000 39.403744 31.346016 2535.227783
8.160000 4.200000 2.000000 13.738739 44.166420 2139.425537
8.160000 4.200000 2.040000 -10.496755 32.840630 1188.688843
8.160000 4.200000 2.080000 -14.218700 9.724649 296.740265
8.160000 4.200000 2.120000 2.017751 -2.756656 11.670470
8.160000 4.200000 2.160000 19.347317 6.143298 412.058777
8.160000 4.200000 2.200000 19.829988 26.179565 1078.598145
8.200000 3.800000 1.800000 -23.510681 -32.611038 1616.231934
8.200000 3.800000 1.840000 -2.497665 -37.371887 1402.896240
8.200000 3.800000 1.880000 15.525698 -21.040442 683.747437
8.200000 3.800000 1.920000 12.592659 4.590691 179.649506
8.200000 3.800000 1.960000 -10.290930 17.178461 401.002747
8.200000 3.800000 2.000000 -33.153061 5.909869 1134.052002
8.200000 3.800000 2.040000 -36.702660 -17.765856 1662.710815
8.200000 3.800000 2.080000 -21.129852 -32.258976 1487.112183
8.200000 3.800000 2.120000 -4.321264 -27.903069 797.254578
8.200000 3.800000 2.160000 -1.892045 -15.482733 243.294846
8.200000 3.800000 2.200000 -10.802511 -12.633037 276.287872
8.200000 3.840000 1.800000 3.094092 -39.500954 1569.898682
8.200000 3.840000 1.840000 21.180912 -29.028488 1291.284180
8.200000 3.840000 1.880000 24.218870 -6.130663 624.138672
8.200000 3.840000 1.920000 7.187197 11.162443 176.255936
8.200000 3.840000 1.960000 -17.170681 8.309546 363.880829
8.200000 3.840000 2.000000 -29.663383 -12.070753 1025.619385
8.200000 3.840000 2.040000 -22.210131 -33.060898 1586.312866
8.200000 3.840000 2.080000 -4.066679 -39.806343 1601.082764
8.200000 3.840000 2.120000 8.993361 -32.576141 1142.085449
8.200000 3.840000 2.160000 10.679929 -23.666553 674.166626
8.200000 3.840000 2.200000 8.563355 -22.490879 579.170654
8.200000 3.880000 1.800000 28.304016 -21.902149 1280.821411
8.200000 3.880000 1.840000 31.213566 -3.444287 986.149780
8.200000 3.880000 1.880000 18.387243 11.832359 478.095459
8.200000 3.880000 1.920000 -2.167138 12.277129 155.424393
8.200000 3.880000 1.960000 -16.193573 -2.817324 270.169128
8.200000 3.880000 2.000000 -14.621366 -22.833488 735.152588
8.200000 3.880000 2.040000 -0.132655 -34.875114 1216.291138
8.200000 3.880000 2.080000 16.539808 -33.798500 1415.903809
8.200000 3.880000 2.120000 26.380665 -24.397198 1291.162720
8.200000 3.880000 2.160000 28.520546 -14.865911 1034.416870
8.200000 3.880000 2.200000 28.057068 -8.792941 864.514832
8.200000 3.920000 1.800000 31.703592 10.869692 1123.267944
8.200000 3.920000 1.840000 17.592779 22.478115 814.771545
8.200000 3.920000 1.880000 -0.430759 20.233122 409.564758
8.200000 3.920000 1.920000 -11.208752 6.280703 165.083344
8.200000 3.920000 1.960000 -9.490912 -10.482107 199.951996
8.200000 3.920000 2.000000 2.213098 -21.324247 459.621307
8.200000 3.920000 2.040000 17.198360 -22.379505 796.625854
8.200000 3.920000 2.080000 29.123627 -14.889828 1069.892578
8.200000 3.920000 2.120000 34.447491 -2.901841 1195.050293
8.200000 3.920000 2.160000 32.716675 8.993597 1151.265625
8.200000 3.920000 2.200000 25.990072 17.259554 973.376038
8.200000 3.960000 1.800000 8.525439 35.675964 1345.457520
8.200000 3.960000 1.840000 -12.042053 29.655830 1024.479248
8.200000 3.960000 1.880000 -21.103668 11.597754 579.872681
8.200000 3.960000 1.920000 -15.419708 -5.809570 271.518494
8.200000 3.960000 1.960000 -1.524330 -13.950881 196.950653
8.200000 3.960000 2.000000 12.418613 -12.281036 305.045807
8.200000 3.960000 2.040000 22.222389 -4.273076 512.093750
8.200000 3.960000 2.080000 26.621719 7.243635 761.186157
8.200000 3.960000 2.120000 24.273483 19.862541 983.722534
8.200000 3.960000 2.160000 14.614399 29.212467 1066.948853
8.200000 3.960000 2.200000 1.264887 30.285257 918.796753
8.200000 4.000000 1.800000 -25.061359 34.514549 1819.325928
8.200000 4.000000 1.840000 -37.598450 12.224524 1563.082397
8.200000 4.000000 1.880000 -30.228580 -10.647622 1027.138916
8.200000 4.000000 1.920000 -11.112499 -20.439983 541.280518
8.200000 4.000000 1.960000 6.647398 -15.713954 291.116241
8.200000 4.000000 2.000000 15.996021 -3.503349 268.146149
8.200000 4.000000 2.040000 17.158630 9.712424 388.749786
8.200000 4.000000 2.080000 11.927613 21.230858 593.017273
8.200000 4.000000 2.120000 0.771267 28.592119 818.104126
8.200000 4.000000 2.160000 -13.719643 27.457273 942.130432
8.200000 4.000000 2.200000 -24.005356 16.059864 834.176270
8.200000 4.040000 1.800000 -45.058056 9.703327 2124.383057
8.200000 4.040000 1.840000 -42.147091 -17.800827 2093.246826
8.200000 4.040000 1.880000 -21.162634 -34.144318 1613.691528
8.200000 4.040000 1.920000 3.063849 -31.547586 1004.637329
8.200000 4.040000 1.960000 17.470383 -15.614583 549.029480
8.200000 4.040000 2.000000 18.462139 2.998848 349.843689
8.200000 4.040000 2.040000 9.364017 16.798115 369.861481
8.200000 4.040000 2.080000 -5.181582 22.431688 530.029419
8.200000 4.040000 2.120000 -20.375893 18.051071 741.018188
8.200000 4.040000 2.160000 -29.444021 4.010904 883.037720
8.200000 4.040000 2.200000 -25.682129 -13.390366 838.873596
8.200000 4.080000 1.800000 -39.535023 -18.590528 1908.625854
8.200000 4.080000 1.840000 -24.600786 -40.380032 2235.745605
8.200000 4.080000 1.880000 1.608102 -45.644020 2085.962402
8.200000 4.080000 1.920000 23.764965 -32.184372 1600.607300
8.200000 4.080000 1.960000 30.977522 -8.901841 1038.849609
8.200000 4.080000 2.000000 21.892094 11.771985 617.843384
8.200000 4.080000 2.040000 2.862087 20.703945 436.844879
8.200000 4.080000 2.080000 -16.271980 14.840101 485.005951
8.200000 4.080000 2.120000 -25.848274 -2.374251 673.770386
8.200000 4.080000 2.160000 -20.138706 -21.572197 870.927124
8.200000 4.080000 2.200000 -1.487926 -30.828838 952.631226
8.200000 4.120000 1.800000 -17.490290 -29.997427 1205.755859
8.200000 4.120000 1.840000 0.848978 -43.005505 1850.194092
8.200000 4.120000 1.880000 25.619583 -39.427864 2210.919434
8.200000 4.120000 1.920000 42.312462 -18.809338 2144.135742
8.200000 4.120000 1.960000 40.470787 8.083528 1703.228027
8.200000 4.120000 2.000000 20.878508 25.861435 1104.725952
8.200000 4.120000 2.040000 -4.445777 24.396532 614.955750
8.200000 4.120000 2.080000 -19.658558 5.634479 418.206238
8.200000 4.120000 2.120000 -15.390947 -17.274530 535.290649
8.200000 4.120000 2.160000 4.805279 -28.457718 832.932434
8.200000 4.120000 2.200000 26.634150 -20.064924 1111.979126
8.200000 4.160000 1.800000 0.699547 -20.596676 424.712433
8.200000 4.160000 1.840000 17.142250 -28.905510 1129.385254
8.200000 4.160000 1.880000 38.632648 -20.470110 1911.506958
8.200000 4.160000 1.920000 48.637207 4.333630 2384.358154
8.200000 4.160000 1.960000 36.676018 30.597715 2281.350586
8.200000 4.160000 2.000000 8.865889 39.717426 1656.078003
8.200000 4.160000 2.040000 -15.345710 25.126844 866.849121
8.200000 4.160000 2.080000 -18.634224 -1.258286 348.817596
8.200000 4.160000 2.120000 -0.209905 -18.361540 337.190216
8.200000 4.160000 2.160000 23.739269 -13.218099 738.271057
8.200000 4.160000 2.200000 33.879227 9.048796 1229.682739
8.200000 4.200000 1.800000 1.641544 -3.926139 18.109238
8.200000 4.200000 1.840000 17.317839 -11.994402 443.773193
8.200000 4.200000 1.880000 36.213821 -0.456697 1311.649536
8.200000 4.200000 1.920000 38.555878 25.815754 2153.008789
8.200000 4.200000 1.960000 17.588249 46.042732 2429.279541
8.200000 4.200000 2.000000 -12.040493 42.477726 1949.330688
8.200000 4.200000 2.040000 -26.767014 17.888897 1036.485596
8.200000 4.200000 2.080000 -15.958074 -6.251969 293.747223
8.200000 4.200000 2.120000 8.295671 -9.548608 159.994080
8.200000 4.200000 2.160000 23.037289 8.938534 610.614075
8.200000 4.200000 2.200000 15.664099 31.377474 1229.909790
